EEG_Channel_0,EEG_Channel_1,EEG_Channel_2,EEG_Channel_3,EEG_Channel_4,EEG_Channel_5,EEG_Channel_6,EEG_Channel_7
0.0,0.0,0.0,0.0,0.0,0.0,0.0,0.0
-15038.611297441877,2927.9667649229486,4706.2492020427235,2245.702117169156,-187500.02235174447,-187500.02235174447,-187500.02235174447,-187500.02235174447
-15137.42835967879,2861.4256216794997,4592.165898342836,2195.7236165670893,-187500.02235174447,-187500.02235174447,-187500.02235174447,-187500.02235174447
-15260.184140227335,2862.2749879688013,4451.282853041035,2177.0152064579975,-187500.02235174447,-187500.02235174447,-187500.02235174447,-187500.02235174447
-15168.653746682854,2941.824846485239,4552.111572278925,2228.6253844053012,-187500.02235174447,-187500.02235174447,-187500.02235174447,-187500.02235174447
-15036.465529974168,2938.62854702813,4706.4280159983655,2252.3629370168373,-187500.02235174447,-187500.02235174447,-187500.02235174447,-187500.02235174447
-15106.694711052742,2863.99607229186,4627.77222726014,2204.261982949017,-187500.02235174447,-187500.02235174447,-187500.02235174447,-187500.02235174447
-15246.706038320786,2857.4917146553653,4466.571446248466,2177.3281308803716,-187500.02235174447,-187500.02235174447,-187500.02235174447,-187500.02235174447
-15193.397127794879,2929.15140737908,4522.741380064653,2221.9422128131646,-187500.02235174447,-187500.02235174447,-187500.02235174447,-187500.02235174447
-15040.086512575926,2954.8112100137723,4694.201611781313,2259.6496057092677,-187500.02235174447,-187500.02235174447,-187500.02235174447,-187500.02235174447
-15082.152495640816,2881.8104126227395,4652.984995005727,2216.331924954882,-187500.02235174447,-187500.02235174447,-187500.02235174447,-187500.02235174447
-15228.645828800898,2858.5198949003097,4483.514068545588,2179.9879884705533,-187500.02235174447,-187500.02235174447,-187500.02235174447,-187500.02235174447
-15214.765395494152,2919.607212496664,4495.785176251552,2210.1628434852178,-187500.02235174447,-187500.02235174447,-187500.02235174447,-187500.02235174447
-15058.5043500071,2963.1260589511467,4679.292998229623,2260.0742888539185,-187500.02235174447,-187500.02235174447,-187500.02235174447,-187500.02235174447
-15059.107847107392,2900.831747154206,4679.941198818827,2227.798369860455,-187500.02235174447,-187500.02235174447,-187500.02235174447,-187500.02235174447
-15206.741119234697,2859.704537356441,4509.173871180281,2182.513735594003,-187500.02235174447,-187500.02235174447,-187500.02235174447,-187500.02235174447
-15237.050084716093,2904.43037801151,4477.747318476119,2198.606991601824,-187500.02235174447,-187500.02235174447,-187500.02235174447,-187500.02235174447
-15079.537341539544,2961.2261606724455,4656.605977607486,2256.274492296516,-187500.02235174447,-187500.02235174447,-187500.02235174447,-187500.02235174447
-15042.522852721555,2907.1349390906025,4697.308504260601,2234.548596685958,-187500.02235174447,-187500.02235174447,-187500.02235174447,-187500.02235174447
-15180.030784610604,2857.4023076775443,4537.985269783172,2187.699340307634,-187500.02235174447,-187500.02235174447,-187500.02235174447,-187500.02235174447
-15246.594279598508,2894.4167964955327,4461.765821190575,2190.381549642271,-187500.02235174447,-187500.02235174447,-187500.02235174447,-187500.02235174447
-15101.397347616834,2964.4895153629204,4625.224128392235,2249.7254311711113,-187500.02235174447,-187500.02235174447,-187500.02235174447,-187500.02235174447
-15028.329494992435,2932.5935760251973,4709.378446266466,2243.4892944680805,-187500.02235174447,-187500.02235174447,-187500.02235174447,-187500.02235174447
-15152.471083697212,2864.7783833477956,4567.668386419819,2190.29214266445,-187500.02235174447,-187500.02235174447,-187500.02235174447,-187500.02235174447
-15252.472788390254,2885.0067120798485,4454.099172842404,2182.0443489604413,-187500.02235174447,-187500.02235174447,-187500.02235174447,-187500.02235174447
-15133.852080565941,2955.593521069708,4593.037616376593,2238.795428132466,-187500.02235174447,-187500.02235174447,-187500.02235174447,-187500.02235174447
-15026.809576369475,2941.176645896035,4713.558222479609,2247.9372916146867,-187500.02235174447,-187500.02235174447,-187500.02235174447,-187500.02235174447
-15124.777272317086,2875.6189794086195,4602.313590325545,2197.802328801433,-187500.02235174447,-187500.02235174447,-187500.02235174447,-187500.02235174447
-15252.964526768272,2875.753089875351,4459.910626400784,2175.5176395794915,-187500.02235174447,-187500.02235174447,-187500.02235174447,-187500.02235174447
-15167.200883293259,2946.429305843032,4560.0911450494705,2225.786712859477,-187500.02235174447,-187500.02235174447,-187500.02235174447,-187500.02235174447
-15029.581192681933,2956.7781635258393,4712.0606556011035,2251.401812005259,-187500.02235174447,-187500.02235174447,-187500.02235174447,-187500.02235174447
-15104.437184862756,2879.441127710477,4634.611861063464,2204.574907371391,-187500.02235174447,-187500.02235174447,-187500.02235174447,-187500.02235174447
-15245.655506331386,2865.4712874259103,4471.846457939918,2172.5448575669357,-187500.02235174447,-187500.02235174447,-187500.02235174447,-187500.02235174447
-15192.726575461218,2936.7957039827947,4526.585880110965,2213.7838260869776,-187500.02235174447,-187500.02235174447,-187500.02235174447,-187500.02235174447
-15041.31585852097,2970.524486365853,4697.1520420494135,2252.8993788837647,-187500.02235174447,-187500.02235174447,-187500.02235174447,-187500.02235174447
-15079.760858984097,2895.959066862949,4659.109372986481,2210.386360929771,-187500.02235174447,-187500.02235174447,-187500.02235174447,-187500.02235174447
-15228.735235778719,2863.7725548473068,4490.934847704751,2173.1260029227738,-187500.02235174447,-187500.02235174447,-187500.02235174447,-187500.02235174447
-15219.995703696693,2922.7588084648623,4499.584972808954,2203.5243753819914,-187500.02235174447,-187500.02235174447,-187500.02235174447,-187500.02235174447
-15058.929033151751,2967.305835164289,4677.907190073394,2253.6146347063345,-187500.02235174447,-187500.02235174447,-187500.02235174447,-187500.02235174447
-15056.917376150774,2906.1291105901137,4680.902323830405,2222.1657302577178,-187500.02235174447,-187500.02235174447,-187500.02235174447,-187500.02235174447
-15204.640055255897,2865.5159909148206,4510.827900269974,2178.9821599700645,-187500.02235174447,-187500.02235174447,-187500.02235174447,-187500.02235174447
-15235.619573070953,2911.4488257704766,4478.1496498763145,2195.7236165670893,-187500.02235174447,-187500.02235174447,-187500.02235174447,-187500.02235174447
-15077.682146749754,2974.5254486233534,4653.990823506216,2252.8993788837647,-187500.02235174447,-187500.02235174447,-187500.02235174447,-187500.02235174447
-15038.03015208604,2923.7869887098063,4702.628219440963,2231.888739095776,-187500.02235174447,-187500.02235174447,-187500.02235174447,-187500.02235174447
-15173.369964762924,2873.3167497297227,4545.964842553716,2184.9500757396313,-187500.02235174447,-187500.02235174447,-187500.02235174447,-187500.02235174447
-15243.822663286051,2903.8045291667618,4467.800792193508,2187.8558025188213,-187500.02235174447,-187500.02235174447,-187500.02235174447,-187500.02235174447
-15101.173830172282,2974.704262578996,4629.895642983394,2249.188989304184,-187500.02235174447,-187500.02235174447,-187500.02235174447,-187500.02235174447
-15022.629800156332,2942.7189162634513,4716.240431814245,2243.645756679268,-187500.02235174447,-187500.02235174447,-187500.02235174447,-187500.02235174447
-15145.474987682699,2880.1787352775023,4578.441927247278,2193.5554973549247,-187500.02235174447,-187500.02235174447,-187500.02235174447,-187500.02235174447
-15248.337715666023,2896.920191874527,4462.838704924429,2182.7149012941004,-187500.02235174447,-187500.02235174447,-187500.02235174447,-187500.02235174447
-15129.113510741416,2971.0385764883254,4598.5361455125985,2239.2871665104826,-187500.02235174447,-187500.02235174447,-187500.02235174447,-187500.02235174447
-15022.719207134154,2956.3981838700993,4723.013010384204,2248.9654718596307,-187500.02235174447,-187500.02235174447,-187500.02235174447,-187500.02235174447
-15121.603324604432,2882.90564810105,4610.606087518464,2198.3611224128153,-187500.02235174447,-187500.02235174447,-187500.02235174447,-187500.02235174447
-15244.15793945288,2887.375996992111,4467.085536370938,2179.608008814813,-187500.02235174447,-187500.02235174447,-187500.02235174447,-187500.02235174447
-15161.322374501513,2956.0405559588144,4563.846238117962,2228.8489018498544,-187500.02235174447,-187500.02235174447,-187500.02235174447,-187500.02235174447
-15026.586058924922,2963.3495763957,4717.581536481564,2253.502875984058,-187500.02235174447,-187500.02235174447,-187500.02235174447,-187500.02235174447
-15096.390556858845,2889.2311917819015,4638.7469337876955,2206.474805650092,-187500.02235174447,-187500.02235174447,-187500.02235174447,-187500.02235174447
-15245.186119697824,2872.5567904182426,4474.305149830002,2175.8529157463213,-187500.02235174447,-187500.02235174447,-187500.02235174447,-187500.02235174447
-15191.229008582714,2943.5906342972085,4528.955165023228,2219.8411488343654,-187500.02235174447,-187500.02235174447,-187500.02235174447,-187500.02235174447
-15040.019457342562,2970.0103962433814,4700.88478337345,2259.8507714093653,-187500.02235174447,-187500.02235174447,-187500.02235174447,-187500.02235174447
-15075.089344392938,2897.791909908284,4659.511704386676,2219.9976110455527,-187500.02235174447,-187500.02235174447,-187500.02235174447,-187500.02235174447
-15226.947096222293,2868.913456072027,4487.000940680617,2178.535125080958,-187500.02235174447,-187500.02235174447,-187500.02235174447,-187500.02235174447
-15218.386378095911,2923.988154409904,4499.741435020142,2205.58073587188,-187500.02235174447,-187500.02235174447,-187500.02235174447,-187500.02235174447
-15058.303184307002,2968.602236342697,4681.058786041593,2255.0674980959297,-187500.02235174447,-187500.02235174447,-187500.02235174447,-187500.02235174447
-15059.957213396696,2904.2962675447784,4682.35518722,2220.668163379212,-187500.02235174447,-187500.02235174447,-187500.02235174447,-187500.02235174447
-15205.422366311834,2869.248732238857,4509.777368280575,2178.155145425218,-187500.02235174447,-187500.02235174447,-187500.02235174447,-187500.02235174447
-15235.664276559864,2919.5625090077533,4475.668606241776,2195.3659886558044,-187500.02235174447,-187500.02235174447,-187500.02235174447,-187500.02235174447
-15077.749201983119,2973.407861400588,4651.554483360587,2252.340585272382,-187500.02235174447,-187500.02235174447,-187500.02235174447,-187500.02235174447
-15042.254631788092,2917.707314217963,4694.4474809703215,2232.022849562508,-187500.02235174447,-187500.02235174447,-187500.02235174447,-187500.02235174447
-15182.578883478509,2865.2254182369015,4538.365249438912,2183.988950728053,-187500.02235174447,-187500.02235174447,-187500.02235174447,-187500.02235174447
-15250.215262200269,2901.122319832125,4457.809562421985,2187.341712396349,-187500.02235174447,-187500.02235174447,-187500.02235174447,-187500.02235174447
-15107.164097686304,2969.2280851874457,4621.7819597461175,2246.931463114198,-187500.02235174447,-187500.02235174447,-187500.02235174447,-187500.02235174447
-15029.73765489312,2934.672288259541,4707.1879753098465,2242.34935550086,-187500.02235174447,-187500.02235174447,-187500.02235174447,-187500.02235174447
-15152.247566252658,2869.6510636390526,4566.863723619428,2190.314494408905,-187500.02235174447,-187500.02235174447,-187500.02235174447,-187500.02235174447
-15251.846939545507,2888.024197581315,4454.16622807577,2181.0385204599525,-187500.02235174447,-187500.02235174447,-187500.02235174447,-187500.02235174447
-15133.360342187923,2962.924893251049,4583.024034860616,2238.2589862655386,-187500.02235174447,-187500.02235174447,-187500.02235174447,-187500.02235174447
-15027.681294403232,2941.757791251873,4707.702065432318,2247.981995103597,-187500.02235174447,-187500.02235174447,-187500.02235174447,-187500.02235174447
-15128.912345041317,2868.6228833941086,4594.24461057718,2196.5506311119357,-187500.02235174447,-187500.02235174447,-187500.02235174447,-187500.02235174447
-15251.913994778872,2877.09419454267,4452.445143752711,2177.596351813835,-187500.02235174447,-187500.02235174447,-187500.02235174447,-187500.02235174447
-15162.372906490911,2952.4195733570546,4550.658708889331,2231.575814673402,-187500.02235174447,-187500.02235174447,-187500.02235174447,-187500.02235174447
-15032.106939805382,2950.027936700337,4705.511594475698,2255.7827539184996,-187500.02235174447,-187500.02235174447,-187500.02235174447,-187500.02235174447
-15102.47023135069,2882.4586132119434,4624.710038269763,2208.3970556732484,-187500.02235174447,-187500.02235174447,-187500.02235174447,-187500.02235174447
-15244.090884219515,2869.6510636390526,4465.8785421703515,2176.702282035623,-187500.02235174447,-187500.02235174447,-187500.02235174447,-187500.02235174447
-15194.872342928928,2933.8005702257838,4521.4673306306995,2215.8401865768656,-187500.02235174447,-187500.02235174447,-187500.02235174447,-187500.02235174447
-15041.762893410076,2962.008471728381,4695.945047848827,2255.1345533292956,-187500.02235174447,-187500.02235174447,-187500.02235174447,-187500.02235174447
-15077.36922232738,2891.734587160896,4659.087021242025,2214.409674931726,-187500.02235174447,-187500.02235174447,-187500.02235174447,-187500.02235174447
-15223.549631065087,2865.5159909148206,4488.811431981496,2177.7304622805673,-187500.02235174447,-187500.02235174447,-187500.02235174447,-187500.02235174447
-15217.53701180661,2926.6927154889963,4497.506260574611,2205.670142849701,-187500.02235174447,-187500.02235174447,-187500.02235174447,-187500.02235174447
-15055.665678461275,2972.536143366831,4673.1462685044135,2260.7224894431224,-187500.02235174447,-187500.02235174447,-187500.02235174447,-187500.02235174447
-15051.68706794823,2909.3254100472227,4676.4319749393435,2230.8829105952873,-187500.02235174447,-187500.02235174447,-187500.02235174447,-187500.02235174447
-15202.069604643537,2865.672453126008,4510.157347936314,2184.1007094503298,-187500.02235174447,-187500.02235174447,-187500.02235174447,-187500.02235174447
-15232.982067225226,2912.186433337502,4472.718175973675,2200.216317202606,-187500.02235174447,-187500.02235174447,-187500.02235174447,-187500.02235174447
-15077.123353138371,2967.1270212086465,4650.638061837919,2256.8779893968094,-187500.02235174447,-187500.02235174447,-187500.02235174447,-187500.02235174447
-15043.707495177687,2915.5838984947086,4696.794414138129,2234.794465874966,-187500.02235174447,-187500.02235174447,-187500.02235174447,-187500.02235174447
-15180.343709032979,2866.8123920932285,4538.029973272082,2185.9782559845753,-187500.02235174447,-187500.02235174447,-187500.02235174447,-187500.02235174447
-15246.773093554151,2900.6752849430186,4461.162324090281,2189.24161067505,-187500.02235174447,-187500.02235174447,-187500.02235174447,-187500.02235174447
-15102.872562750885,2968.7810502983393,4618.29508761109,2249.3678032598264,-187500.02235174447,-187500.02235174447,-187500.02235174447,-187500.02235174447
-15027.502480447589,2935.1863783820127,4703.656399685908,2245.568006702424,-187500.02235174447,-187500.02235174447,-187500.02235174447,-187500.02235174447
-15147.866624339418,2871.729775873396,4567.087241063981,2195.857727033821,-187500.02235174447,-187500.02235174447,-187500.02235174447,-187500.02235174447
-15249.567061611066,2889.342950504178,4452.0875158414265,2184.9724274840864,-187500.02235174447,-187500.02235174447,-187500.02235174447,-187500.02235174447
-15133.539156143566,2963.304872906789,4587.829659918507,2244.5845299463904,-187500.02235174447,-187500.02235174447,-187500.02235174447,-187500.02235174447
-15024.64145715731,2946.474009331943,4714.496995746732,2252.429992250203,-187500.02235174447,-187500.02235174447,-187500.02235174447,-187500.02235174447
-15120.776310059586,2877.47417419841,4602.693569981286,2199.4563578911257,-187500.02235174447,-187500.02235174447,-187500.02235174447,-187500.02235174447
-15246.616631342964,2878.9046858435495,4461.4528967682,2178.602180314324,-187500.02235174447,-187500.02235174447,-187500.02235174447,-187500.02235174447
-15165.546854203565,2946.183436654024,4557.833618859484,2225.8984715817537,-187500.02235174447,-187500.02235174447,-187500.02235174447,-187500.02235174447
-15032.039884572016,2956.3981838700993,4708.149100321424,2252.5864544613905,-187500.02235174447,-187500.02235174447,-187500.02235174447,-187500.02235174447
-15100.36916737189,2881.1622120335355,4630.521491828143,2205.178404471684,-187500.02235174447,-187500.02235174447,-187500.02235174447,-187500.02235174447
-15241.92276500735,2869.4946014278653,4472.025271895561,2175.4505843461257,-187500.02235174447,-187500.02235174447,-187500.02235174447,-187500.02235174447
-15191.43017428281,2937.3992010830884,4528.239909200658,2217.6506778777457,-187500.02235174447,-187500.02235174447,-187500.02235174447,-187500.02235174447
-15038.20896604168,2968.7139950649735,4700.6165624399855,2257.3920795192817,-187500.02235174447,-187500.02235174447,-187500.02235174447,-187500.02235174447
-15071.64717574682,2900.250601798368,4661.702175343296,2214.9461167986533,-187500.02235174447,-187500.02235174447,-187500.02235174447,-187500.02235174447
-15221.53797406411,2868.3770142051,4492.924152961273,2176.1434884242403,-187500.02235174447,-187500.02235174447,-187500.02235174447,-187500.02235174447
-15216.419424583844,2921.4624072864544,4501.283705387557,2204.798424815944,-187500.02235174447,-187500.02235174447,-187500.02235174447,-187500.02235174447
-15055.062181360983,2969.116326465169,4682.265780242179,2255.380422518304,-187500.02235174447,-187500.02235174447,-187500.02235174447,-187500.02235174447
-15055.553919738999,2906.4196832680327,4679.337701718534,2223.2386139915725,-187500.02235174447,-187500.02235174447,-187500.02235174447,-187500.02235174447
-15199.05211914207,2866.0971362706587,4504.167080422292,2182.2008111716286,-187500.02235174447,-187500.02235174447,-187500.02235174447,-187500.02235174447
-15228.936401478817,2915.248622327879,4472.941693418228,2196.416520645204,-187500.02235174447,-187500.02235174447,-187500.02235174447,-187500.02235174447
-15077.212760116192,2972.536143366831,4652.090925227514,2254.307538784449,-187500.02235174447,-187500.02235174447,-187500.02235174447,-187500.02235174447
-15039.460663731179,2918.8696049296386,4699.744844406229,2232.827512362899,-187500.02235174447,-187500.02235174447,-187500.02235174447,-187500.02235174447
-15178.24264505418,2865.672453126008,4544.735496608674,2182.2902181494496,-187500.02235174447,-187500.02235174447,-187500.02235174447,-187500.02235174447
-15248.561233110577,2895.7802529073065,4462.972815391161,2184.8830205062654,-187500.02235174447,-187500.02235174447,-187500.02235174447,-187500.02235174447
-15102.492583095145,2966.7246898084513,4621.804311490573,2245.277434024505,-187500.02235174447,-187500.02235174447,-187500.02235174447,-187500.02235174447
-15026.07196880245,2934.8511022151833,4709.221984055279,2239.153056043751,-187500.02235174447,-187500.02235174447,-187500.02235174447,-187500.02235174447
-15145.787912105074,2873.786136363284,4570.954092854749,2190.1133287088073,-187500.02235174447,-187500.02235174447,-187500.02235174447,-187500.02235174447
-15247.086017976526,2890.4605377269436,4457.809562421985,2181.485555349059,-187500.02235174447,-187500.02235174447,-187500.02235174447,-187500.02235174447
-15129.314676441512,2962.1649339395685,4591.517697753632,2238.1025240543513,-187500.02235174447,-187500.02235174447,-187500.02235174447,-187500.02235174447
-15021.892192589306,2947.4798378324317,4714.608754469008,2246.663242180734,-187500.02235174447,-187500.02235174447,-187500.02235174447,-187500.02235174447
-15120.597496103943,2877.764746876329,4599.318456568534,2197.154128212229,-187500.02235174447,-187500.02235174447,-187500.02235174447,-187500.02235174447
-15245.409637142378,2880.7598806333403,4459.173018833759,2176.568171568891,-187500.02235174447,-187500.02235174447,-187500.02235174447,-187500.02235174447
-15158.684868655786,2954.408878613577,4557.632453159386,2229.5641576724242,-187500.02235174447,-187500.02235174447,-187500.02235174447,-187500.02235174447
-15023.523869934545,2959.1921519270127,4710.160757322402,2256.319195785427,-187500.02235174447,-187500.02235174447,-187500.02235174447,-187500.02235174447
-15093.216609146191,2885.5208022023207,4636.824683764539,2207.05595100593,-187500.02235174447,-187500.02235174447,-187500.02235174447,-187500.02235174447
-15232.95971548077,2876.021310808815,4471.332367817446,2175.919970979687,-187500.02235174447,-187500.02235174447,-187500.02235174447,-187500.02235174447
-15187.451563769766,2942.2271778854347,4523.27782193158,2214.4543784206367,-187500.02235174447,-187500.02235174447,-187500.02235174447,-187500.02235174447
-15034.275059017547,2972.8043643002948,4697.219097282779,2253.5922829618794,-187500.02235174447,-187500.02235174447,-187500.02235174447,-187500.02235174447
-15067.467399533678,2900.1388430760912,4659.601111364497,2213.180328986684,-187500.02235174447,-187500.02235174447,-187500.02235174447,-187500.02235174447
-15218.654599029374,2868.6228833941086,4488.967894192683,2173.8412587453436,-187500.02235174447,-187500.02235174447,-187500.02235174447,-187500.02235174447
-15212.418462326345,2926.0445148997924,4498.579144308465,2204.351389926838,-187500.02235174447,-187500.02235174447,-187500.02235174447,-187500.02235174447
-15052.715248193175,2971.798535799806,4678.443631940321,2253.63698645079,-187500.02235174447,-187500.02235174447,-187500.02235174447,-187500.02235174447
-15048.960155124683,2914.175738594024,4684.366844220977,2220.9363843126757,-187500.02235174447,-187500.02235174447,-187500.02235174447,-187500.02235174447
-15199.208581353258,2867.952331060449,4517.198147439736,2176.0093779575086,-187500.02235174447,-187500.02235174447,-187500.02235174447,-187500.02235174447
-15236.15601493788,2908.1407675910914,4479.714271988186,2190.67212232019,-187500.02235174447,-187500.02235174447,-187500.02235174447,-187500.02235174447
-15077.88331244985,2971.4185561440654,4655.130762473436,2249.568968959924,-187500.02235174447,-187500.02235174447,-187500.02235174447,-187500.02235174447
-15034.990314840117,2927.3409160782003,4703.522289219176,2231.374648973304,-187500.02235174447,-187500.02235174447,-187500.02235174447,-187500.02235174447
-15177.035650853593,2867.7288136158963,4544.288461719569,2180.85970650431,-187500.02235174447,-187500.02235174447,-187500.02235174447,-187500.02235174447
-15247.041314487615,2900.0047326093595,4462.279911313047,2183.743081539045,-187500.02235174447,-187500.02235174447,-187500.02235174447,-187500.02235174447
-15107.499373853134,2969.0716229762584,4622.139587657402,2242.148189800762,-187500.02235174447,-187500.02235174447,-187500.02235174447,-187500.02235174447
-15028.038922314516,2935.7898754823063,4714.2958300466335,2241.120009555818,-187500.02235174447,-187500.02235174447,-187500.02235174447,-187500.02235174447
-15148.38071446189,2869.6734153835077,4572.1834387997915,2190.4486048756366,-187500.02235174447,-187500.02235174447,-187500.02235174447,-187500.02235174447
-15251.735180823229,2890.95227610496,4459.374184533856,2177.596351813835,-187500.02235174447,-187500.02235174447,-187500.02235174447,-187500.02235174447
-15134.634391621876,2963.8636665181716,4591.584752986998,2237.051992064952,-187500.02235174447,-187500.02235174447,-187500.02235174447,-187500.02235174447
-15024.820271112952,2951.72666927894,4715.726341691773,2247.222035792117,-187500.02235174447,-187500.02235174447,-187500.02235174447,-187500.02235174447
-15122.497394382644,2881.2963225002677,4607.320381083534,2195.477747378081,-187500.02235174447,-187500.02235174447,-187500.02235174447,-187500.02235174447
-15248.15890171038,2880.670473655519,4463.621015980365,2175.338825623849,-187500.02235174447,-187500.02235174447,-187500.02235174447,-187500.02235174447
-15165.010412336638,2952.017241956859,4559.800572371551,2226.1666925152176,-187500.02235174447,-187500.02235174447,-187500.02235174447,-187500.02235174447
-15028.597715925898,2962.4778583619427,4713.692332946341,2252.92173062822,-187500.02235174447,-187500.02235174447,-187500.02235174447,-187500.02235174447
-15094.065975435493,2895.579087207209,4634.835378508017,2207.3688754283044,-187500.02235174447,-187500.02235174447,-187500.02235174447,-187500.02235174447
-15235.619573070953,2882.346854489667,4471.779402706552,2175.830564001866,-187500.02235174447,-187500.02235174447,-187500.02235174447,-187500.02235174447
-15188.05506087006,2947.122209921147,4526.94350802225,2217.6506778777457,-187500.02235174447,-187500.02235174447,-187500.02235174447,-187500.02235174447
-15036.26436427407,2970.3233206657555,4698.202574038813,2257.0344516079967,-187500.02235174447,-187500.02235174447,-187500.02235174447,-187500.02235174447
-15069.970794912673,2899.311828531245,4660.741050331718,2214.1861574871727,-187500.02235174447,-187500.02235174447,-187500.02235174447,-187500.02235174447
-15217.87228797344,2876.8706770981166,4492.566525049988,2177.9763314695756,-187500.02235174447,-187500.02235174447,-187500.02235174447,-187500.02235174447
-15213.87132571594,2932.8617969586608,4498.422682097278,2206.161881227718,-187500.02235174447,-187500.02235174447,-187500.02235174447,-187500.02235174447
-15056.358582539391,2977.2523614469005,4680.142364518924,2256.699175441167,-187500.02235174447,-187500.02235174447,-187500.02235174447,-187500.02235174447
-15052.871710404363,2916.120340361636,4688.59132392303,2223.9538698141423,-187500.02235174447,-187500.02235174447,-187500.02235174447,-187500.02235174447
-15200.840258698496,2875.2613514973345,4517.868699773396,2177.596351813835,-187500.02235174447,-187500.02235174447,-187500.02235174447,-187500.02235174447
-15232.982067225226,2922.0435526422925,4477.4567457982,2194.9636572556087,-187500.02235174447,-187500.02235174447,-187500.02235174447,-187500.02235174447
-15073.636481003343,2984.0919952502245,4655.644852595908,2254.4863527400917,-187500.02235174447,-187500.02235174447,-187500.02235174447,-187500.02235174447
-15032.889250861319,2937.7791807388285,4701.823556640573,2234.8168176194213,-187500.02235174447,-187500.02235174447,-187500.02235174447,-187500.02235174447
-15173.593482207476,2883.1291655456025,4541.807418085029,2185.352407139827,-187500.02235174447,-187500.02235174447,-187500.02235174447,-187500.02235174447
-15243.755608052685,2910.0406658697925,4460.804696178996,2187.408767629715,-187500.02235174447,-187500.02235174447,-187500.02235174447,-187500.02235174447
-15100.525629583077,2980.5157161373754,4618.630363777919,2247.8478846368653,-187500.02235174447,-187500.02235174447,-187500.02235174447,-187500.02235174447
-15021.959247822673,2948.038631443814,4709.98194336676,2246.1268003138066,-187500.02235174447,-187500.02235174447,-187500.02235174447,-187500.02235174447
-15143.776255104096,2883.933828345994,4571.803459144051,2197.1988317011396,-187500.02235174447,-187500.02235174447,-187500.02235174447,-187500.02235174447
-15246.057837731581,2897.7472064193735,4455.842608909918,2184.279523405972,-187500.02235174447,-187500.02235174447,-187500.02235174447,-187500.02235174447
-15130.320504942001,2972.3349776667333,4587.04734886257,2241.768210145022,-187500.02235174447,-187500.02235174447,-187500.02235174447,-187500.02235174447
-15023.21094551217,2960.9132362500713,4712.59709746803,2252.0276608500076,-187500.02235174447,-187500.02235174447,-187500.02235174447,-187500.02235174447
-15119.636371092365,2891.689883671985,4599.497270524177,2201.2668491920053,-187500.02235174447,-187500.02235174447,-187500.02235174447,-187500.02235174447
-15243.465035374766,2895.914363374038,4460.3576612898905,2181.172630926684,-187500.02235174447,-187500.02235174447,-187500.02235174447,-187500.02235174447
-15159.556586689543,2964.1989426850014,4556.738383381175,2230.8829105952873,-187500.02235174447,-187500.02235174447,-187500.02235174447,-187500.02235174447
-15023.30035248999,2975.084242234736,4711.680675945363,2258.2637975530383,-187500.02235174447,-187500.02235174447,-187500.02235174447,-187500.02235174447
-15090.981434700661,2896.76372966334,4640.132741943925,2210.989858030064,-187500.02235174447,-187500.02235174447,-187500.02235174447,-187500.02235174447
-15233.697323047796,2881.0951568001697,4476.652082997809,2179.898581492732,-187500.02235174447,-187500.02235174447,-187500.02235174447,-187500.02235174447
-15186.691604458287,2951.4137448565657,4528.105798733926,2218.701209867145,-187500.02235174447,-187500.02235174447,-187500.02235174447,-187500.02235174447
-15033.358637494879,2977.721748080462,4700.124824061969,2256.699175441167,-187500.02235174447,-187500.02235174447,-187500.02235174447,-187500.02235174447
-15066.55097801101,2907.760787935351,4664.607902122486,2215.9742970435973,-187500.02235174447,-187500.02235174447,-187500.02235174447,-187500.02235174447
-15216.687645517308,2878.278836998801,4496.701597774219,2175.897619235232,-187500.02235174447,-187500.02235174447,-187500.02235174447,-187500.02235174447
-15211.47968905922,2936.4157243270547,4503.742397277641,2204.574907371391,-187500.02235174447,-187500.02235174447,-187500.02235174447,-187500.02235174447
-15053.02817261555,2984.3602161836884,4682.466945942277,2254.464000995636,-187500.02235174447,-187500.02235174447,-187500.02235174447,-187500.02235174447
-15049.854224902896,2917.3273345622224,4690.714739646285,2222.925689569198,-187500.02235174447,-187500.02235174447,-187500.02235174447,-187500.02235174447
-15198.225104597224,2875.6189794086195,4526.205900455225,2178.6468838032347,-187500.02235174447,-187500.02235174447,-187500.02235174447,-187500.02235174447
-15232.95971548077,2921.954145664471,4486.039815669038,2193.533145610469,-187500.02235174447,-187500.02235174447,-187500.02235174447,-187500.02235174447
-15076.855132204908,2981.1192132376686,4661.6351201099305,2251.3571085163485,-187500.02235174447,-187500.02235174447,-187500.02235174447,-187500.02235174447
-15033.716265406165,2932.504169047376,4708.417321254888,2233.3863059742816,-187500.02235174447,-187500.02235174447,-187500.02235174447,-187500.02235174447
-15172.721764173719,2879.99992132186,4550.144618766859,2183.832488516866,-187500.02235174447,-187500.02235174447,-187500.02235174447,-187500.02235174447
-15245.387285397923,2903.8045291667618,4469.812449194485,2184.391282128249,-187500.02235174447,-187500.02235174447,-187500.02235174447,-187500.02235174447
-15103.543115084543,2977.632341102641,4627.548709815587,2244.7409921575777,-187500.02235174447,-187500.02235174447,-187500.02235174447,-187500.02235174447
-15027.949515336695,2944.015317441859,4717.201556825824,2239.0412973214743,-187500.02235174447,-187500.02235174447,-187500.02235174447,-187500.02235174447
-15152.828711608496,2873.741432874374,4575.9385318682835,2187.4311193741705,-187500.02235174447,-187500.02235174447,-187500.02235174447,-187500.02235174447
-15254.931480280338,2896.473156985421,4458.390707777823,2177.261075647006,-187500.02235174447,-187500.02235174447,-187500.02235174447,-187500.02235174447
-15137.070731767504,2967.886980520127,4590.936552397794,2234.861521108332,-187500.02235174447,-187500.02235174447,-187500.02235174447,-187500.02235174447
-15026.11667229136,2953.961843724471,4719.861414416006,2246.149152058262,-187500.02235174447,-187500.02235174447,-187500.02235174447,-187500.02235174447
-15119.926943770284,2885.543153946776,4613.176538130825,2197.355293912327,-187500.02235174447,-187500.02235174447,-187500.02235174447,-187500.02235174447
-15246.102541220493,2885.0961190576695,4469.298359072013,2176.6799302911677,-187500.02235174447,-187500.02235174447,-187500.02235174447,-187500.02235174447
-15164.988060592183,2960.2650356608674,4561.387546227878,2225.987878559575,-187500.02235174447,-187500.02235174447,-187500.02235174447,-187500.02235174447
-15027.882460103328,2969.764527054373,4713.714684690796,2253.368765517326,-187500.02235174447,-187500.02235174447,-187500.02235174447,-187500.02235174447
-15093.663644035298,2897.85896514165,4639.864521010461,2208.6429248622567,-187500.02235174447,-187500.02235174447,-187500.02235174447,-187500.02235174447
-15236.580698082531,2879.4187759660217,4477.568504520476,2174.6906250346456,-187500.02235174447,-187500.02235174447,-187500.02235174447,-187500.02235174447
-15192.257188827658,2946.071677931747,4530.89976679084,2213.403846431237,-187500.02235174447,-187500.02235174447,-187500.02235174447,-187500.02235174447
-15038.54424220851,2981.5215446378643,4701.3765217514665,2254.8886841402873,-187500.02235174447,-187500.02235174447,-187500.02235174447,-187500.02235174447
-15070.686050735243,2910.934735648005,4665.792544578618,2212.3309626973823,-187500.02235174447,-187500.02235174447,-187500.02235174447,-187500.02235174447
-15218.878116473928,2880.938694588983,4496.3439698629345,2174.1094796788075,-187500.02235174447,-187500.02235174447,-187500.02235174447,-187500.02235174447
-15215.927686205827,2940.595500540197,4500.680208287265,2202.607953859324,-187500.02235174447,-187500.02235174447,-187500.02235174447,-187500.02235174447
-15056.827969172951,2986.438928418032,4682.042262797626,2256.721527185622,-187500.02235174447,-187500.02235174447,-187500.02235174447,-187500.02235174447
-15049.586003969433,2924.8151689547503,4691.385291979944,2225.8537680928434,-187500.02235174447,-187500.02235174447,-187500.02235174447,-187500.02235174447
-15196.548723763077,2877.5635811762313,4519.947412007739,2180.703244293123,-187500.02235174447,-187500.02235174447,-187500.02235174447,-187500.02235174447
-15229.67400904584,2923.3623055651556,4479.26723709908,2197.154128212229,-187500.02235174447,-187500.02235174447,-187500.02235174447,-187500.02235174447
-15077.391574071835,2983.466146405476,4654.504913628687,2253.704041684156,-187500.02235174447,-187500.02235174447,-187500.02235174447,-187500.02235174447
-15033.224527028147,2938.829712728228,4705.399835753422,2235.532073441991,-187500.02235174447,-187500.02235174447,-187500.02235174447,-187500.02235174447
-15171.157142061847,2885.9678370914266,4549.943453066761,2186.022959473486,-187500.02235174447,-187500.02235174447,-187500.02235174447,-187500.02235174447
-15241.565137096064,2913.929869405016,4468.2254753381585,2190.6497705757347,-187500.02235174447,-187500.02235174447,-187500.02235174447,-187500.02235174447
-15101.889085994851,2980.0910329927246,4624.15124465838,2249.0995823263625,-187500.02235174447,-187500.02235174447,-187500.02235174447,-187500.02235174447
-15026.250782758092,2946.384602354122,4717.179205081368,2242.0364310784857,-187500.02235174447,-187500.02235174447,-187500.02235174447,-187500.02235174447
-15145.743208616163,2879.99992132186,4577.771374913618,2191.342674653849,-187500.02235174447,-187500.02235174447,-187500.02235174447,-187500.02235174447
-15251.824587801051,2894.6179621956308,4459.821219422963,2181.060872204408,-187500.02235174447,-187500.02235174447,-187500.02235174447,-187500.02235174447
-15135.304943955534,2970.9044660215936,4589.640151219386,2238.9071868547426,-187500.02235174447,-187500.02235174447,-187500.02235174447,-187500.02235174447
-15020.506384433078,2962.2543409173895,4716.531004492164,2251.178294560706,-187500.02235174447,-187500.02235174447,-187500.02235174447,-187500.02235174447
-15116.194202446248,2894.796776151273,4607.230974105713,2200.931573025176,-187500.02235174447,-187500.02235174447,-187500.02235174447,-187500.02235174447
-15245.186119697824,2889.2535435263567,4466.616149737376,2179.0268634589747,-187500.02235174447,-187500.02235174447,-187500.02235174447,-187500.02235174447
-15163.28932801358,2958.8345240157278,4560.962863083228,2228.9383088276754,-187500.02235174447,-187500.02235174447,-187500.02235174447,-187500.02235174447
-15026.340189735913,2969.831582287739,4715.569879480587,2256.341547529882,-187500.02235174447,-187500.02235174447,-187500.02235174447,-187500.02235174447
-15091.428469589768,2898.283648286301,4641.362087888967,2209.0005527735416,-187500.02235174447,-187500.02235174447,-187500.02235174447,-187500.02235174447
-15232.087997447015,2884.4255667240104,4476.74148997563,2179.2950843924386,-187500.02235174447,-187500.02235174447,-187500.02235174447,-187500.02235174447
-15191.117249860437,2947.144561665602,4527.815226056007,2217.0695325219076,-187500.02235174447,-187500.02235174447,-187500.02235174447,-187500.02235174447
-15037.426654985746,2977.632341102641,4701.8459083850275,2258.1520388307617,-187500.02235174447,-187500.02235174447,-187500.02235174447,-187500.02235174447
-15067.065068133483,2913.4157792825436,4666.843076568017,2218.991782545064,-187500.02235174447,-187500.02235174447,-187500.02235174447,-187500.02235174447
-15216.262962372657,2880.826935866706,4501.618981554387,2180.4573751041144,-187500.02235174447,-187500.02235174447,-187500.02235174447,-187500.02235174447
-15213.513697804654,2936.4157243270547,4504.234135655658,2208.3076486954274,-187500.02235174447,-187500.02235174447,-187500.02235174447,-187500.02235174447
-15053.385800526834,2985.701320851007,4679.114184273981,2258.8002394199657,-187500.02235174447,-187500.02235174447,-187500.02235174447,-187500.02235174447
-15047.909623135285,2920.7695032083398,4692.525230947164,2227.4630936936255,-187500.02235174447,-187500.02235174447,-187500.02235174447,-187500.02235174447
-15195.319377818034,2878.725871887907,4524.4177608988,2185.3971106287377,-187500.02235174447,-187500.02235174447,-187500.02235174447,-187500.02235174447
-15234.479634103733,2924.7034102324737,4483.111737145393,2199.992799758053,-187500.02235174447,-187500.02235174447,-187500.02235174447,-187500.02235174447
-15078.307995594501,2986.7071493514954,4657.745916574707,2257.347376030371,-187500.02235174447,-187500.02235174447,-187500.02235174447,-187500.02235174447
-15035.035018329028,2937.53331154982,4708.752597421718,2236.53790194248,-187500.02235174447,-187500.02235174447,-187500.02235174447,-187500.02235174447
-15172.319432773524,2879.7764038773066,4551.217502500714,2187.408767629715,-187500.02235174447,-187500.02235174447,-187500.02235174447,-187500.02235174447
-15248.047142988104,2906.4867385013986,4467.107888115393,2187.766395541,-187500.02235174447,-187500.02235174447,-187500.02235174447,-187500.02235174447
-15106.694711052742,2978.861687047683,4623.860671980461,2249.054878837452,-187500.02235174447,-187500.02235174447,-187500.02235174447,-187500.02235174447
-15024.35088447939,2948.7762390108396,4713.871146901983,2244.3610125018376,-187500.02235174447,-187500.02235174447,-187500.02235174447,-187500.02235174447
-15143.3739237039,2886.705444658452,4578.084299335993,2192.4155583877036,-187500.02235174447,-187500.02235174447,-187500.02235174447,-187500.02235174447
-15249.343544166511,2896.964895363438,4460.558826989988,2181.731424538067,-187500.02235174447,-187500.02235174447,-187500.02235174447,-187500.02235174447
-15134.120301499404,2971.9773497554484,4585.639188961886,2240.337698499882,-187500.02235174447,-187500.02235174447,-187500.02235174447,-187500.02235174447
-15022.138061778316,2961.4496781169987,4714.273478302179,2251.7147364276334,-187500.02235174447,-187500.02235174447,-187500.02235174447,-187500.02235174447
-15120.530440870578,2886.861906869639,4610.226107862724,2198.2717154349943,-187500.02235174447,-187500.02235174447,-187500.02235174447,-187500.02235174447
-15247.68951507682,2890.2146685379353,4467.331405559946,2177.1269651802736,-187500.02235174447,-187500.02235174447,-187500.02235174447,-187500.02235174447
-15164.675136169808,2966.590579341719,4556.201941514247,2229.027715805497,-187500.02235174447,-187500.02235174447,-187500.02235174447,-187500.02235174447
-15025.893154846806,2972.5808468557416,4711.703027689819,2256.274492296516,-187500.02235174447,-187500.02235174447,-187500.02235174447,-187500.02235174447
-15086.779306743063,2899.6471046980746,4635.662393052864,2209.447587662648,-187500.02235174447,-187500.02235174447,-187500.02235174447,-187500.02235174447
-15227.148261922392,2890.8852208715944,4474.17103936327,2181.2843896489608,-187500.02235174447,-187500.02235174447,-187500.02235174447,-187500.02235174447
-15184.881113157406,2957.6051780706857,4524.104836476426,2221.919861068709,-187500.02235174447,-187500.02235174447,-187500.02235174447,-187500.02235174447
-15031.905774105284,2986.3048179513003,4701.041245584637,2262.7564981885553,-187500.02235174447,-187500.02235174447,-187500.02235174447,-187500.02235174447
-15064.31580356548,2913.6840002160075,4668.519457402165,2221.0704947794075,-187500.02235174447,-187500.02235174447,-187500.02235174447,-187500.02235174447
-15214.228953627224,2883.240924267879,4496.433376840756,2183.117232694296,-187500.02235174447,-187500.02235174447,-187500.02235174447,-187500.02235174447
-15213.468994315745,2940.1708173955462,4496.656894285309,2208.86644230681,-187500.02235174447,-187500.02235174447,-187500.02235174447,-187500.02235174447
-15054.145759838315,2984.471974905965,4679.628274396453,2259.9401783871863,-187500.02235174447,-187500.02235174447,-187500.02235174447,-187500.02235174447
-15047.507291735088,2921.931793920016,4688.926600089861,2229.050067549952,-187500.02235174447,-187500.02235174447,-187500.02235174447,-187500.02235174447
-15194.648825484375,2884.1349940460914,4519.925060263284,2184.503040850525,-187500.02235174447,-187500.02235174447,-187500.02235174447,-187500.02235174447
-15233.987895725715,2926.4915497888983,4476.920303931272,2197.5788113568797,-187500.02235174447,-187500.02235174447,-187500.02235174447,-187500.02235174447
-15081.638405518343,2984.6507888616075,4653.320271172556,2253.6593381952453,-187500.02235174447,-187500.02235174447,-187500.02235174447,-187500.02235174447
-15034.92325960675,2936.8404074717055,4706.517422976187,2235.0403350639745,-187500.02235174447,-187500.02235174447,-187500.02235174447,-187500.02235174447
-15171.604176950954,2879.9105143440383,4549.004679799638,2187.0064362295197,-187500.02235174447,-187500.02235174447,-187500.02235174447,-187500.02235174447
-15245.767265053662,2914.533366505309,4467.97960614915,2189.0404449749526,-187500.02235174447,-187500.02235174447,-187500.02235174447,-187500.02235174447
-15104.638350562855,2983.220277216468,4624.732390014218,2249.121934070818,-187500.02235174447,-187500.02235174447,-187500.02235174447,-187500.02235174447
-15026.317837991457,2951.4137448565657,4717.000391125726,2243.891625868276,-187500.02235174447,-187500.02235174447,-187500.02235174447,-187500.02235174447
-15146.972554561205,2887.465403969932,4580.1630115703365,2191.4320816316704,-187500.02235174447,-187500.02235174447,-187500.02235174447,-187500.02235174447
-15249.522358122154,2900.9882093653932,4462.034042124038,2184.3018751504273,-187500.02235174447,-187500.02235174447,-187500.02235174447,-187500.02235174447
-15135.260240466625,2975.598332357208,4589.550744241565,2240.5835676888905,-187500.02235174447,-187500.02235174447,-187500.02235174447,-187500.02235174447
-15024.529698435033,2961.4943816059094,4719.906117904916,2249.501913726558,-187500.02235174447,-187500.02235174447,-187500.02235174447,-187500.02235174447
-15118.854060036429,2891.5557732052534,4611.835433463506,2199.1881369576618,-187500.02235174447,-187500.02235174447,-187500.02235174447,-187500.02235174447
-15247.913032521372,2889.119433059625,4464.895065414317,2177.0599099469077,-187500.02235174447,-187500.02235174447,-187500.02235174447,-187500.02235174447
-15168.318470516024,2961.4496781169987,4557.2748252481015,2225.9431750706644,-187500.02235174447,-187500.02235174447,-187500.02235174447,-187500.02235174447
-15030.542317693511,2973.989006756426,4711.390103267444,2252.7205649281223,-187500.02235174447,-187500.02235174447,-187500.02235174447,-187500.02235174447
-15093.998920202128,2898.887145386594,4640.87034951095,2205.379570171782,-187500.02235174447,-187500.02235174447,-187500.02235174447,-187500.02235174447
-15238.368837638956,2881.184563777991,4473.254617840603,2173.640093045246,-187500.02235174447,-187500.02235174447,-187500.02235174447,-187500.02235174447
-15192.234837083202,2950.63143380063,4521.80260679753,2214.8120063319216,-187500.02235174447,-187500.02235174447,-187500.02235174447,-187500.02235174447
-15041.517024221066,2978.3028934363,4694.894515859427,2253.413469006237,-187500.02235174447,-187500.02235174447,-187500.02235174447,-187500.02235174447
-15069.79198095703,2910.2641833143457,4658.617634608464,2215.639020876768,-187500.02235174447,-187500.02235174447,-187500.02235174447,-187500.02235174447
-15222.253229886679,2875.015482308326,4489.683150015253,2174.4671075900924,-187500.02235174447,-187500.02235174447,-187500.02235174447,-187500.02235174447
-15221.068587430549,2930.157235879569,4491.784213994052,2202.272677692494,-187500.02235174447,-187500.02235174447,-187500.02235174447,-187500.02235174447
-15059.465475018678,2981.0298062598476,4673.772117349162,2254.9780911181083,-187500.02235174447,-187500.02235174447,-187500.02235174447,-187500.02235174447
-15050.658887703286,2920.6130409971524,4687.4066814668995,2223.149207013751,-187500.02235174447,-187500.02235174447,-187500.02235174447,-187500.02235174447
-15197.19692435228,2874.702557885952,4517.868699773396,2178.4904215920474,-187500.02235174447,-187500.02235174447,-187500.02235174447,-187500.02235174447
-15236.267773660156,2917.4837967734097,4471.6899957287305,2193.1084624658183,-187500.02235174447,-187500.02235174447,-187500.02235174447,-187500.02235174447
-15078.911492694795,2986.2824662068447,4648.291128670112,2253.860503895343,-187500.02235174447,-187500.02235174447,-187500.02235174447,-187500.02235174447
-15033.716265406165,2936.7510004938845,4702.717626418785,2233.6768786522007,-187500.02235174447,-187500.02235174447,-187500.02235174447,-187500.02235174447
-15168.385525749389,2880.893991100072,4549.1164385219145,2183.743081539045,-187500.02235174447,-187500.02235174447,-187500.02235174447,-187500.02235174447
-15246.057837731581,2911.024142625826,4465.766783448074,2184.503040850525,-187500.02235174447,-187500.02235174447,-187500.02235174447,-187500.02235174447
-15109.42162387629,2978.951094025504,4616.976334688226,2243.4669427236254,-187500.02235174447,-187500.02235174447,-187500.02235174447,-187500.02235174447
-15024.775567624041,2951.5255035788423,4714.4075887689105,2241.723506656111,-187500.02235174447,-187500.02235174447,-187500.02235174447,-187500.02235174447
-15144.335048715478,2883.28562775679,4581.884095893395,2189.5545350974244,-187500.02235174447,-187500.02235174447,-187500.02235174447,-187500.02235174447
-15248.628288343942,2903.5139564888427,4462.391670035323,2179.9656367260977,-187500.02235174447,-187500.02235174447,-187500.02235174447,-187500.02235174447
-15132.108644498427,2981.342730682222,4591.517697753632,2238.5272071990025,-187500.02235174447,-187500.02235174447,-187500.02235174447,-187500.02235174447
-15018.226506498637,2976.8723817911605,4718.900289404427,2249.2336927930946,-187500.02235174447,-187500.02235174447,-187500.02235174447,-187500.02235174447
-15112.103833210926,2900.4294157540103,4617.915107955349,2199.38930265776,-187500.02235174447,-187500.02235174447,-187500.02235174447,-187500.02235174447
-15242.68272431883,2890.125261560114,4468.739565460631,2177.0822616913633,-187500.02235174447,-187500.02235174447,-187500.02235174447,-187500.02235174447
-15164.80924663654,2964.2659979183672,4559.778220627096,2225.1385122702736,-187500.02235174447,-187500.02235174447,-187500.02235174447,-187500.02235174447
-15023.412111212268,2982.3485591827107,4716.642763214441,2254.464000995636,-187500.02235174447,-187500.02235174447,-187500.02235174447,-187500.02235174447
-15084.119449152882,2908.856023413661,4645.608919335476,2209.0452562624523,-187500.02235174447,-187500.02235174447,-187500.02235174447,-187500.02235174447
-15230.366913123957,2888.9406191039825,4482.709405745198,2174.869438990288,-187500.02235174447,-187500.02235174447,-187500.02235174447,-187500.02235174447
-15190.826677182518,2956.800515270295,4526.854101044429,2214.9014133097426,-187500.02235174447,-187500.02235174447,-187500.02235174447,-187500.02235174447
-15039.237146286625,2985.0978237507134,4696.92852460486,2254.464000995636,-187500.02235174447,-187500.02235174447,-187500.02235174447,-187500.02235174447
-15067.109771622394,2917.014410139848,4669.122954502458,2215.0355237764747,-187500.02235174447,-187500.02235174447,-187500.02235174447,-187500.02235174447
-15219.258096129668,2881.8774678561053,4502.244830399136,2173.282465133961,-187500.02235174447,-187500.02235174447,-187500.02235174447,-187500.02235174447
-15218.319322862546,2938.6732505170407,4500.3896356093455,2202.965581770609,-187500.02235174447,-187500.02235174447,-187500.02235174447,-187500.02235174447
-15055.799788928009,2990.372835442166,4682.35518722,2256.6097684633455,-187500.02235174447,-187500.02235174447,-187500.02235174447,-187500.02235174447
-15045.607393456388,2926.24568059989,4697.6214286829745,2222.9703930581086,-187500.02235174447,-187500.02235174447,-187500.02235174447,-187500.02235174447
-15193.374776050423,2880.4469562109657,4524.484816132166,2176.411709357704,-187500.02235174447,-187500.02235174447,-187500.02235174447,-187500.02235174447
-15234.099654447993,2924.636354999108,4479.758975477097,2189.8227560308883,-187500.02235174447,-187500.02235174447,-187500.02235174447,-187500.02235174447
-15080.073783406471,2987.109480751691,4654.549617117598,2246.506779969547,-187500.02235174447,-187500.02235174447,-187500.02235174447,-187500.02235174447
-15034.364465995368,2938.270919116845,4708.976114866271,2229.2959367389603,-187500.02235174447,-187500.02235174447,-187500.02235174447,-187500.02235174447
-15168.117304815925,2882.4362614674883,4555.419630458311,2182.178459427173,-187500.02235174447,-187500.02235174447,-187500.02235174447,-187500.02235174447
-15243.554442352588,2911.0464943702814,4469.767745705574,2182.9384187386536,-187500.02235174447,-187500.02235174447,-187500.02235174447,-187500.02235174447
-15103.61017031791,2983.1308702386464,4628.643945293898,2242.952852601153,-187500.02235174447,-187500.02235174447,-187500.02235174447,-187500.02235174447
-15020.193460010703,2956.2864251478227,4723.996487140237,2240.471808966614,-187500.02235174447,-187500.02235174447,-187500.02235174447,-187500.02235174447
-15138.411836434823,2892.5839534501974,4588.723729696719,2188.638113574757,-187500.02235174447,-187500.02235174447,-187500.02235174447,-187500.02235174447
-15247.488349376721,2902.9328111330046,4465.945597403717,2173.617741300791,-187500.02235174447,-187500.02235174447,-187500.02235174447,-187500.02235174447
-15135.059074766526,2976.5594573687863,4590.824793675518,2232.246367007061,-187500.02235174447,-187500.02235174447,-187500.02235174447,-187500.02235174447
-15018.15945126527,2973.20669570049,4721.4483882723325,2248.764306159533,-187500.02235174447,-187500.02235174447,-187500.02235174447,-187500.02235174447
-15111.656798321821,2902.351665777167,4619.166805644847,2195.544802611447,-187500.02235174447,-187500.02235174447,-187500.02235174447,-187500.02235174447
-15242.883890018928,2895.6908459294855,4468.828972438451,2171.024938943975,-187500.02235174447,-187500.02235174447,-187500.02235174447,-187500.02235174447
-15163.3787349914,2962.2990444063003,4557.543046181565,2220.288183723472,-187500.02235174447,-187500.02235174447,-187500.02235174447,-187500.02235174447
-15025.513175191067,2972.8937712781158,4715.6369347139525,2248.7419544150775,-187500.02235174447,-187500.02235174447,-187500.02235174447,-187500.02235174447
-15086.019347431584,2902.9775146219154,4650.146323459902,2203.703189337634,-187500.02235174447,-187500.02235174447,-187500.02235174447,-187500.02235174447
-15229.606953812476,2887.755976647851,4482.88821970084,2171.8743052332766,-187500.02235174447,-187500.02235174447,-187500.02235174447,-187500.02235174447
-15192.637168483398,2951.01141345637,4528.441074900756,2209.24642196255,-187500.02235174447,-187500.02235174447,-187500.02235174447,-187500.02235174447
-15036.376122996346,2982.1250417381575,4702.650571185419,2251.0441840939743,-187500.02235174447,-187500.02235174447,-187500.02235174447,-187500.02235174447
-15061.633594230843,2922.0659043867477,4672.118088259469,2211.1016167523408,-187500.02235174447,-187500.02235174447,-187500.02235174447,-187500.02235174447
-15212.060834415059,2890.281723771301,4499.249696642125,2171.337863366349,-187500.02235174447,-187500.02235174447,-187500.02235174447,-187500.02235174447
-15214.027787927127,2944.127076164136,4501.4625193432,2196.8859072787654,-187500.02235174447,-187500.02235174447,-187500.02235174447,-187500.02235174447
-15059.59958548541,2985.9918935289256,4683.718643631773,2245.8138758914324,-187500.02235174447,-187500.02235174447,-187500.02235174447,-187500.02235174447
-15048.714285935675,2927.2291573559237,4696.749710649217,2217.1365877552735,-187500.02235174447,-187500.02235174447,-187500.02235174447,-187500.02235174447
-15193.553590006066,2884.2020492794572,4529.826883056985,2174.154183167718,-187500.02235174447,-187500.02235174447,-187500.02235174447,-187500.02235174447
-15232.87030850295,2927.542081778298,4486.1292226468595,2186.447642618137,-187500.02235174447,-187500.02235174447,-187500.02235174447,-187500.02235174447
-15073.144742625325,2990.037559275336,4659.355242175489,2244.964509602131,-187500.02235174447,-187500.02235174447,-187500.02235174447,-187500.02235174447
-15020.215811755159,2943.4565238304763,4714.675809702374,2229.5194541835135,-187500.02235174447,-187500.02235174447,-187500.02235174447,-187500.02235174447
-15154.95212733175,2889.2088400374464,4559.644110160364,2182.67019780519,-187500.02235174447,-187500.02235174447,-187500.02235174447,-187500.02235174447
-15230.545727079598,2919.5401572632977,4471.5111817730885,2183.9218954946873,-187500.02235174447,-187500.02235174447,-187500.02235174447,-187500.02235174447
-15093.529533568566,2987.1988877295125,4626.051142937082,2241.723506656111,-187500.02235174447,-187500.02235174447,-187500.02235174447,-187500.02235174447
-15009.35286394988,2957.53812283732,4722.968306895293,2241.991727589575,-187500.02235174447,-187500.02235174447,-187500.02235174447,-187500.02235174447
-15126.476004895689,2888.2030115369575,4593.037616376593,2190.158032197718,-187500.02235174447,-187500.02235174447,-187500.02235174447,-187500.02235174447
-15237.988857983215,2898.6412761975857,4467.510219515589,2176.2328954020613,-187500.02235174447,-187500.02235174447,-187500.02235174447,-187500.02235174447
-15128.84528980795,2972.8714195336606,4586.421500017822,2230.927614084198,-187500.02235174447,-187500.02235174447,-187500.02235174447,-187500.02235174447
-15013.97967505213,2964.757736296384,4719.414379526899,2242.3270037564043,-187500.02235174447,-187500.02235174447,-187500.02235174447,-187500.02235174447
-15104.280722651569,2894.886183129094,4616.462244565755,2195.2318781890726,-187500.02235174447,-187500.02235174447,-187500.02235174447,-187500.02235174447
-15234.971372481748,2889.6558749265523,4473.209914351692,2172.969540711587,-187500.02235174447,-187500.02235174447,-187500.02235174447,-187500.02235174447
-15156.449694210256,2963.7966112848057,4560.113496793926,2222.2998407244495,-187500.02235174447,-187500.02235174447,-187500.02235174447,-187500.02235174447
-15013.934971563218,2983.5779051277527,4716.151024836424,2254.061669595441,-187500.02235174447,-187500.02235174447,-187500.02235174447,-187500.02235174447
-15076.050469404516,2906.307924545756,4650.1910269488135,2205.4019219162374,-187500.02235174447,-187500.02235174447,-187500.02235174447,-187500.02235174447
-15220.554497308076,2886.57133419172,4485.4586703132,2174.66827329019,-187500.02235174447,-187500.02235174447,-187500.02235174447,-187500.02235174447
-15181.662461955842,2954.3194716357557,4530.452731901733,2215.9742970435973,-187500.02235174447,-187500.02235174447,-187500.02235174447,-187500.02235174447
-15028.105977547883,2983.1979254720122,4707.4785479877655,2255.0004428625634,-187500.02235174447,-187500.02235174447,-187500.02235174447,-187500.02235174447
-15051.575309225955,2915.3603810501554,4678.130707517947,2213.694419109156,-187500.02235174447,-187500.02235174447,-187500.02235174447,-187500.02235174447
-15202.561343021554,2883.151517290058,4509.486795602656,2174.4671075900924,-187500.02235174447,-187500.02235174447,-187500.02235174447,-187500.02235174447
-15207.992816924194,2938.2932708613007,4498.6909030307415,2201.333904425371,-187500.02235174447,-187500.02235174447,-187500.02235174447,-187500.02235174447
-15050.636535958833,2981.856820804694,4673.63800688243,2248.7196026706224,-187500.02235174447,-187500.02235174447,-187500.02235174447,-187500.02235174447
-15038.387779997323,2923.250546842879,4695.341550748533,2220.019962790008,-187500.02235174447,-187500.02235174447,-187500.02235174447,-187500.02235174447
-15184.05409861256,2876.401290464555,4524.775388810085,2177.57400006938,-187500.02235174447,-187500.02235174447,-187500.02235174447,-187500.02235174447
-15223.661389787363,2921.931793920016,4479.714271988186,2190.0015699865307,-187500.02235174447,-187500.02235174447,-187500.02235174447,-187500.02235174447
-15071.714230980186,2986.7071493514954,4654.393154906411,2246.864407880832,-187500.02235174447,-187500.02235174447,-187500.02235174447,-187500.02235174447
-15023.166242023259,2937.890939461105,4709.132577077458,2230.927614084198,-187500.02235174447,-187500.02235174447,-187500.02235174447,-187500.02235174447
-15154.885072098385,2882.883296356594,4557.319528737013,2184.14541293924,-187500.02235174447,-187500.02235174447,-187500.02235174447,-187500.02235174447
-15235.44075911531,2907.8054914242616,4466.54909450401,2181.8878867492544,-187500.02235174447,-187500.02235174447,-187500.02235174447,-187500.02235174447
-15099.586856315955,2977.408823658088,4618.540956800099,2239.533035699491,-187500.02235174447,-187500.02235174447,-187500.02235174447,-187500.02235174447
-15014.203192496681,2954.25241640239,4718.3638475375,2238.460151965636,-187500.02235174447,-187500.02235174447,-187500.02235174447,-187500.02235174447
-15131.438092164766,2886.146651047069,4586.309741295546,2186.7829187849666,-187500.02235174447,-187500.02235174447,-187500.02235174447,-187500.02235174447
-15239.419369628355,2896.7413779188846,4462.391670035323,2175.7411570240447,-187500.02235174447,-187500.02235174447,-187500.02235174447,-187500.02235174447
-15127.682999096276,2971.4856113774317,4590.444814019777,2231.2628902510273,-187500.02235174447,-187500.02235174447,-187500.02235174447,-187500.02235174447
-15015.074910530439,2960.82382927225,4719.324972549078,2243.5787014459015,-187500.02235174447,-187500.02235174447,-187500.02235174447,-187500.02235174447
-15107.454670364223,2887.755976647851,4614.361180586956,2194.6283810887794,-187500.02235174447,-187500.02235174447,-187500.02235174447,-187500.02235174447
-15234.323171892545,2889.3205987597225,4464.895065414317,2172.768375011489,-187500.02235174447,-187500.02235174447,-187500.02235174447,-187500.02235174447
-15157.388467477378,2961.5614368392753,4554.503208935644,2221.115198268318,-187500.02235174447,-187500.02235174447,-187500.02235174447,-187500.02235174447
-15015.633704141821,2977.4982306359093,4715.860452158506,2251.804143405455,-187500.02235174447,-187500.02235174447,-187500.02235174447,-187500.02235174447
-15077.190408371736,2905.14563383408,4648.559349603575,2207.1677097282063,-187500.02235174447,-187500.02235174447,-187500.02235174447,-187500.02235174447
-15221.515622319654,2882.279799256301,4480.764803977586,2174.958845968109,-187500.02235174447,-187500.02235174447,-187500.02235174447,-187500.02235174447
-15186.602197480464,2942.897730219094,4523.970726009694,2210.833395818877,-187500.02235174447,-187500.02235174447,-187500.02235174447,-187500.02235174447
-15035.750274151598,2973.6090271006856,4695.520364704176,2251.9159021277314,-187500.02235174447,-187500.02235174447,-187500.02235174447,-187500.02235174447
-15057.699687206708,2906.687904201496,4671.402832436899,2216.309573210427,-187500.02235174447,-187500.02235174447,-187500.02235174447,-187500.02235174447
-15206.361139578956,2880.335197488689,4500.36728386489,2176.8140407578994,-187500.02235174447,-187500.02235174447,-187500.02235174447,-187500.02235174447
-15209.088052402503,2936.348669093689,4498.355626863912,2201.1774422141843,-187500.02235174447,-187500.02235174447,-187500.02235174447,-187500.02235174447
-15050.658887703286,2979.979274270448,4677.795431351117,2252.5864544613905,-187500.02235174447,-187500.02235174447,-187500.02235174447,-187500.02235174447
-15038.007800341584,2920.1660061080465,4689.820669868072,2223.05980003593,-187500.02235174447,-187500.02235174447,-187500.02235174447,-187500.02235174447
-15181.729517189207,2880.603418422153,4525.468292888199,2179.898581492732,-187500.02235174447,-187500.02235174447,-187500.02235174447,-187500.02235174447
-15229.115215434458,2915.2039188389685,4476.160344619792,2192.0132269875085,-187500.02235174447,-187500.02235174447,-187500.02235174447,-187500.02235174447
-15078.59856827242,2973.9666550119705,4646.882968769428,2247.0432218364745,-187500.02235174447,-187500.02235174447,-187500.02235174447,-187500.02235174447
-15026.228431013637,2931.498340546887,4708.573783466075,2231.084076295385,-187500.02235174447,-187500.02235174447,-187500.02235174447,-187500.02235174447
-15161.23296752369,2874.054357296748,4554.637319402375,2184.368930383793,-187500.02235174447,-187500.02235174447,-187500.02235174447,-187500.02235174447
-15239.553480095086,2900.9435058764825,4461.139972345826,2183.1619361832068,-187500.02235174447,-187500.02235174447,-187500.02235174447,-187500.02235174447
-15100.972664472183,2974.279579434345,4616.171671887836,2241.6117479338345,-187500.02235174447,-187500.02235174447,-187500.02235174447,-187500.02235174447
-15016.997160553594,2951.4137448565657,4716.620411469986,2240.181236288695,-187500.02235174447,-187500.02235174447,-187500.02235174447,-187500.02235174447
-15134.56733638851,2878.614113165631,4581.928799382305,2188.7722240414887,-187500.02235174447,-187500.02235174447,-187500.02235174447,-187500.02235174447
-15243.956773752783,2888.1359563035917,4457.563693232977,2175.674101790679,-187500.02235174447,-187500.02235174447,-187500.02235174447,-187500.02235174447
-15134.790853833063,2962.6119688286744,4581.347654026467,2231.5534629289464,-187500.02235174447,-187500.02235174447,-187500.02235174447,-187500.02235174447
-15019.5452594215,2954.0512507022922,4713.848795157528,2244.182198546195,-187500.02235174447,-187500.02235174447,-187500.02235174447,-187500.02235174447
-15107.946408742238,2886.146651047069,4611.410750318855,2196.125947967285,-187500.02235174447,-187500.02235174447,-187500.02235174447,-187500.02235174447
-15238.055913216582,2884.2914562572787,4464.4703822696665,2173.8859622342543,-187500.02235174447,-187500.02235174447,-187500.02235174447,-187500.02235174447
-15161.456484968245,2954.6547478025855,4550.211674000225,2223.2833174804828,-187500.02235174447,-187500.02235174447,-187500.02235174447,-187500.02235174447
-15022.026303056038,2966.210599685979,4708.819652655084,2249.859541637843,-187500.02235174447,-187500.02235174447,-187500.02235174447,-187500.02235174447
-15084.566484041989,2891.2652005273344,4644.312518157068,2201.5350701254692,-187500.02235174447,-187500.02235174447,-187500.02235174447,-187500.02235174447
-15227.81881425605,2877.697691642963,4478.820202209974,2171.00258719952,-187500.02235174447,-187500.02235174447,-187500.02235174447,-187500.02235174447
-15190.446697526777,2942.3389366077113,4518.2933829180465,2208.173538228695,-187500.02235174447,-187500.02235174447,-187500.02235174447,-187500.02235174447
-15037.06902707446,2974.436041645532,4694.3357222480445,2247.7361259145887,-187500.02235174447,-187500.02235174447,-187500.02235174447,-187500.02235174447
-15061.097152363916,2906.7996629237728,4670.419355680866,2211.4592446636257,-187500.02235174447,-187500.02235174447,-187500.02235174447,-187500.02235174447
-15211.524392548132,2873.6743776410076,4500.255525142614,2173.95301746762,-187500.02235174447,-187500.02235174447,-187500.02235174447,-187500.02235174447
-15210.987950681205,2932.4594655584656,4496.679246029764,2198.4952328795475,-187500.02235174447,-187500.02235174447,-187500.02235174447,-187500.02235174447
-15049.764817925075,2982.9073527940936,4681.617579652975,2248.183160803695,-187500.02235174447,-187500.02235174447,-187500.02235174447,-187500.02235174447
-15034.54327995101,2924.792817210295,4693.106376303002,2220.3328872123825,-187500.02235174447,-187500.02235174447,-187500.02235174447,-187500.02235174447
-15181.349537533468,2882.3245027452117,4528.128150478381,2174.4671075900924,-187500.02235174447,-187500.02235174447,-187500.02235174447,-187500.02235174447
-15227.707055533774,2921.1941863529905,4481.927094689261,2186.5817530848685,-187500.02235174447,-187500.02235174447,-187500.02235174447,-187500.02235174447
-15076.877483949362,2979.8675155481715,4653.633195594931,2243.4222392347147,-187500.02235174447,-187500.02235174447,-187500.02235174447,-187500.02235174447
-15024.283829246026,2939.3885063396106,4712.015952112192,2229.273584994505,-187500.02235174447,-187500.02235174447,-187500.02235174447,-187500.02235174447
-15159.087200055981,2880.536363188787,4552.737421123675,2181.1949826711398,-187500.02235174447,-187500.02235174447,-187500.02235174447,-187500.02235174447
-15237.4971196052,2913.0805031157142,4465.945597403717,2181.5526105824247,-187500.02235174447,-187500.02235174447,-187500.02235174447,-187500.02235174447
-15105.018330218594,2981.0074545153925,4622.474863824233,2237.3649164873264,-187500.02235174447,-187500.02235174447,-187500.02235174447,-187500.02235174447
-15016.25955298657,2952.6430908016077,4723.16947259539,2237.342564742871,-187500.02235174447,-187500.02235174447,-187500.02235174447,-187500.02235174447
-15129.158214230325,2887.7112731589405,4589.774261686118,2187.766395541,-187500.02235174447,-187500.02235174447,-187500.02235174447,-187500.02235174447
-15237.765340538663,2899.6471046980746,4464.69389971422,2174.377700612271,-187500.02235174447,-187500.02235174447,-187500.02235174447,-187500.02235174447
-15129.18056597478,2976.5371056243307,4586.399148273367,2232.53693968498,-187500.02235174447,-187500.02235174447,-187500.02235174447,-187500.02235174447
-15014.627875641332,2964.8694950186605,4716.396894025433,2246.305614269449,-187500.02235174447,-187500.02235174447,-187500.02235174447,-187500.02235174447
-15103.140783684348,2893.120395317125,4615.858747465461,2199.5457648689467,-187500.02235174447,-187500.02235174447,-187500.02235174447,-187500.02235174447
-15235.261945159667,2893.4556714839546,4466.862018926385,2174.8247355013773,-187500.02235174447,-187500.02235174447,-187500.02235174447,-187500.02235174447
-15158.215482022224,2963.3942798846106,4550.882226333884,2219.9752593010976,-187500.02235174447,-187500.02235174447,-187500.02235174447,-187500.02235174447
-15017.26538148706,2976.626512602152,4705.7798154091615,2249.9936521045747,-187500.02235174447,-187500.02235174447,-187500.02235174447,-187500.02235174447
-15078.866789205884,2902.664590199541,4643.820779779051,2203.345561426349,-187500.02235174447,-187500.02235174447,-187500.02235174447,-187500.02235174447
-15225.091901432503,2884.559677190742,4477.255580098103,2169.0356336874524,-187500.02235174447,-187500.02235174447,-187500.02235174447,-187500.02235174447
-15187.831543425507,2951.2349309009232,4519.388618396356,2208.598221373346,-187500.02235174447,-187500.02235174447,-187500.02235174447,-187500.02235174447
-15032.397512483301,2982.0132830158814,4699.431919983855,2251.8711986388207,-187500.02235174447,-187500.02235174447,-187500.02235174447,-187500.02235174447
-15055.330402294447,2915.3603810501554,4674.487373171732,2214.5214336540025,-187500.02235174447,-187500.02235174447,-187500.02235174447,-187500.02235174447
-15205.489421545199,2883.732662645896,4504.815281011496,2174.6906250346456,-187500.02235174447,-187500.02235174447,-187500.02235174447,-187500.02235174447
-15211.256171614668,2939.589672039708,4501.171946665281,2197.2658869345055,-187500.02235174447,-187500.02235174447,-187500.02235174447,-187500.02235174447
-15051.731771437142,2991.088091264736,4681.63993139743,2249.837189893388,-187500.02235174447,-187500.02235174447,-187500.02235174447,-187500.02235174447
-15036.510233463077,2929.3972765680883,4694.961571092793,2222.0316197909856,-187500.02235174447,-187500.02235174447,-187500.02235174447,-187500.02235174447
-15183.875284656917,2878.278836998801,4531.346801679945,2174.243590145539,-187500.02235174447,-187500.02235174447,-187500.02235174447,-187500.02235174447
-15229.472843345744,2917.3273345622224,4482.038853411538,2185.441814117648,-187500.02235174447,-187500.02235174447,-187500.02235174447,-187500.02235174447
-15078.352699083413,2981.0968614932135,4654.281396184135,2243.2210735346166,-187500.02235174447,-187500.02235174447,-187500.02235174447,-187500.02235174447
-15027.524832192044,2936.2369103714123,4715.055789358114,2225.093808781363,-187500.02235174447,-187500.02235174447,-187500.02235174447,-187500.02235174447
-15159.690697156275,2882.6150754231307,4558.682985148786,2177.4175378581926,-187500.02235174447,-187500.02235174447,-187500.02235174447,-187500.02235174447
-15241.967468496261,2909.3924652805886,4468.650158482809,2178.803346014422,-187500.02235174447,-187500.02235174447,-187500.02235174447,-187500.02235174447
-15107.342911641947,2979.1746114700572,4621.759608001663,2238.370744987815,-187500.02235174447,-187500.02235174447,-187500.02235174447,-187500.02235174447
-15016.930105320229,2953.2912913908117,4721.738960950251,2238.370744987815,-187500.02235174447,-187500.02235174447,-187500.02235174447,-187500.02235174447
-15133.606211376931,2889.030026081804,4589.282523308101,2187.5652298409022,-187500.02235174447,-187500.02235174447,-187500.02235174447,-187500.02235174447
-15242.526262107644,2898.3283517752116,4462.704594457698,2174.5341628234582,-187500.02235174447,-187500.02235174447,-187500.02235174447,-187500.02235174447
-15136.824862578496,2967.574056097753,4587.71790119623,2228.4912739385695,-187500.02235174447,-187500.02235174447,-187500.02235174447,-187500.02235174447
-15019.947590821695,2960.8685327611606,4718.296792304134,2241.5670444449242,-187500.02235174447,-187500.02235174447,-187500.02235174447,-187500.02235174447
-15108.08051920897,2890.371130749122,4621.089055668003,2190.7391775535557,-187500.02235174447,-187500.02235174447,-187500.02235174447,-187500.02235174447
-15237.318305649556,2886.124299302614,4469.477173027655,2169.639130787746,-187500.02235174447,-187500.02235174447,-187500.02235174447,-187500.02235174447
-15164.697487914264,2961.092050205714,4553.475028690699,2221.6739918797007,-187500.02235174447,-187500.02235174447,-187500.02235174447,-187500.02235174447
-15025.647285657798,2976.1571259685907,4720.442559771844,2251.848846894365,-187500.02235174447,-187500.02235174447,-187500.02235174447,-187500.02235174447
-15082.688937507743,2906.1067588456585,4657.008309007681,2202.272677692494,-187500.02235174447,-187500.02235174447,-187500.02235174447,-187500.02235174447
-15227.282372389123,2885.8113748802393,4485.793946480029,2170.66731103269,-187500.02235174447,-187500.02235174447,-187500.02235174447,-187500.02235174447
-15190.178476593313,2951.369041367655,4517.3546096509235,2208.3300004398825,-187500.02235174447,-187500.02235174447,-187500.02235174447,-187500.02235174447
-15031.838718871919,2988.092957507725,4697.666132171886,2253.3240620284155,-187500.02235174447,-187500.02235174447,-187500.02235174447,-187500.02235174447
-15054.88336740534,2914.4216077830324,4677.281341228645,2214.8567098208323,-187500.02235174447,-187500.02235174447,-187500.02235174447,-187500.02235174447
-15203.76833722214,2879.307017243745,4513.241888671147,2174.5565145679134,-187500.02235174447,-187500.02235174447,-187500.02235174447,-187500.02235174447
-15211.859668714962,2937.7791807388285,4501.484871087655,2200.059854991419,-187500.02235174447,-187500.02235174447,-187500.02235174447,-187500.02235174447
-15052.715248193175,2988.8305650747498,4680.3658819634775,2252.184123061195,-187500.02235174447,-187500.02235174447,-187500.02235174447,-187500.02235174447
-15037.605468941389,2931.7442097358958,4702.382350251955,2224.467959936614,-187500.02235174447,-187500.02235174447,-187500.02235174447,-187500.02235174447
-15183.137677089891,2884.3361597461894,4534.654859859331,2181.2843896489608,-187500.02235174447,-187500.02235174447,-187500.02235174447,-187500.02235174447
-15225.717750277252,2926.089218388703,4484.117565645882,2191.566192098402,-187500.02235174447,-187500.02235174447,-187500.02235174447,-187500.02235174447
-15075.961062426695,2984.9413615395265,4657.142419474414,2246.9985183475637,-187500.02235174447,-187500.02235174447,-187500.02235174447,-187500.02235174447
-15023.143890278805,2941.6683842740517,4718.721475448785,2231.933442584687,-187500.02235174447,-187500.02235174447,-187500.02235174447,-187500.02235174447
-15157.634336666386,2889.9464476044714,4562.19220902827,2181.2843896489608,-187500.02235174447,-187500.02235174447,-187500.02235174447,-187500.02235174447
-15238.882927761428,2913.7510554493733,4469.74539396112,2181.820831515888,-187500.02235174447,-187500.02235174447,-187500.02235174447,-187500.02235174447
-15103.006673217616,2980.0910329927246,4624.799445247584,2240.1588845442398,-187500.02235174447,-187500.02235174447,-187500.02235174447,-187500.02235174447
-15014.180840752226,2957.6275298151413,4727.12573136398,2240.1588845442398,-187500.02235174447,-187500.02235174447,-187500.02235174447,-187500.02235174447
-15131.929830542784,2891.8463458831725,4593.238782076691,2190.225087431084,-187500.02235174447,-187500.02235174447,-187500.02235174447,-187500.02235174447
-15241.028695229137,2901.122319832125,4468.158420104793,2176.5234680799804,-187500.02235174447,-187500.02235174447,-187500.02235174447,-187500.02235174447
-15135.506109655633,2973.9666550119705,4589.796613430573,2231.1958350176615,-187500.02235174447,-187500.02235174447,-187500.02235174447,-187500.02235174447
-15013.912619818762,2973.8995997786046,4726.186958096857,2248.0490503369633,-187500.02235174447,-187500.02235174447,-187500.02235174447,-187500.02235174447
-15102.917266239796,2899.9153256315385,4627.749875515685,2199.121081724296,-187500.02235174447,-187500.02235174447,-187500.02235174447,-187500.02235174447
-15235.686628304318,2895.5567354627533,4475.623902752865,2177.484593091559,-187500.02235174447,-187500.02235174447,-187500.02235174447,-187500.02235174447
-15162.842293124473,2966.6129310861747,4555.084354291482,2222.188082002173,-187500.02235174447,-187500.02235174447,-187500.02235174447,-187500.02235174447
-15019.29939023249,2981.566248126775,4717.134501592458,2253.1005445838628,-187500.02235174447,-187500.02235174447,-187500.02235174447,-187500.02235174447
-15074.195274614725,2909.1912995804905,4658.0588409970815,2208.888794051265,-187500.02235174447,-187500.02235174447,-187500.02235174447,-187500.02235174447
-15223.01318919816,2890.371130749122,4493.013559939094,2175.7858605129554,-187500.02235174447,-187500.02235174447,-187500.02235174447,-187500.02235174447
-15189.731441704207,2955.0123757138704,4524.909499276817,2213.2250324755946,-187500.02235174447,-187500.02235174447,-187500.02235174447,-187500.02235174447
-15034.006838084084,2984.0249400168586,4700.54950720662,2253.569931217424,-187500.02235174447,-187500.02235174447,-187500.02235174447,-187500.02235174447
-15055.017477872072,2919.6519159855743,4679.874143585461,2214.923765054198,-187500.02235174447,-187500.02235174447,-187500.02235174447,-187500.02235174447
-15205.668235500842,2885.6772644135076,4508.413911868801,2174.1765349121733,-187500.02235174447,-187500.02235174447,-187500.02235174447,-187500.02235174447
-15213.491346060198,2938.0026981833817,4503.004789710616,2198.763453813011,-187500.02235174447,-187500.02235174447,-187500.02235174447,-187500.02235174447
-15053.050524360006,2988.5399923968307,4681.952855819804,2252.452343994659,-187500.02235174447,-187500.02235174447,-187500.02235174447,-187500.02235174447
-15034.990314840117,2933.353535336678,4702.941143863338,2225.1608640147288,-187500.02235174447,-187500.02235174447,-187500.02235174447,-187500.02235174447
-15183.562360234542,2883.151517290058,4532.106760991426,2177.3951861137375,-187500.02235174447,-187500.02235174447,-187500.02235174447,-187500.02235174447
-15229.15991892337,2928.3243928342335,4481.100080144415,2191.119157209296,-187500.02235174447,-187500.02235174447,-187500.02235174447,-187500.02235174447
-15078.285643850048,2987.310646451789,4655.2425211957125,2248.607843948346,-187500.02235174447,-187500.02235174447,-187500.02235174447,-187500.02235174447
-15023.166242023259,2947.032802943326,4720.151987093925,2233.185140274184,-187500.02235174447,-187500.02235174447,-187500.02235174447,-187500.02235174447
-15156.896729099362,2886.928962103005,4565.209694529735,2185.2406484175503,-187500.02235174447,-187500.02235174447,-187500.02235174447,-187500.02235174447
-15241.475730118244,2914.0192763828372,4468.739565460631,2182.513735594003,-187500.02235174447,-187500.02235174447,-187500.02235174447,-187500.02235174447
-15112.126184955381,2981.0968614932135,4616.48459631021,2238.2813380099938,-187500.02235174447,-187500.02235174447,-187500.02235174447,-187500.02235174447
-15022.11571003386,2950.1396954226134,4715.413417269399,2250.3512800158596,-187500.02235174447,-187500.02235174447,-187500.02235174447,-187500.02235174447
-15135.014371277615,2881.609246922642,4587.986122129693,2199.9480962691423,-187500.02235174447,-187500.02235174447,-187500.02235174447,-187500.02235174447
-15249.254137188691,2887.4877557143877,4461.4752485126555,2169.1920958986398,-187500.02235174447,-187500.02235174447,-187500.02235174447,-187500.02235174447
-15127.034798507071,2978.3028934363,4593.350540798967,2230.1453030282623,-187500.02235174447,-187500.02235174447,-187500.02235174447,-187500.02235174447
-15007.900000560285,2976.090070735225,4727.818635442095,2247.311442769938,-187500.02235174447,-187500.02235174447,-187500.02235174447,-187500.02235174447
-15098.066937692993,2900.76469192084,4627.705172026775,2195.701264822634,-187500.02235174447,-187500.02235174447,-187500.02235174447,-187500.02235174447
-15230.545727079598,2897.3672267636334,4476.227399853158,2173.282465133961,-187500.02235174447,-187500.02235174447,-187500.02235174447,-187500.02235174447
-15160.629470423399,2962.9025415065935,4552.335089723479,2223.3503727138486,-187500.02235174447,-187500.02235174447,-187500.02235174447,-187500.02235174447
-15019.522907677045,2978.012320758381,4715.994562625237,2253.122896328318,-187500.02235174447,-187500.02235174447,-187500.02235174447,-187500.02235174447
-15079.380879328357,2901.5246512323206,4654.907245028883,2204.4855003935695,-187500.02235174447,-187500.02235174447,-187500.02235174447,-187500.02235174447
-15226.365950866457,2879.865810855128,4483.335254589946,2171.337863366349,-187500.02235174447,-187500.02235174447,-187500.02235174447,-187500.02235174447
-15191.184305093802,2948.9103494775713,4521.4673306306995,2210.7216370966003,-187500.02235174447,-187500.02235174447,-187500.02235174447,-187500.02235174447
-15037.471358474657,2982.1697452270682,4698.761367650195,2252.2288265501056,-187500.02235174447,-187500.02235174447,-187500.02235174447,-187500.02235174447
-15058.683163962742,2915.0474566277812,4674.487373171732,2214.5884888873684,-187500.02235174447,-187500.02235174447,-187500.02235174447,-187500.02235174447
-15205.936456434305,2883.933828345994,4503.004789710616,2177.3728343692824,-187500.02235174447,-187500.02235174447,-187500.02235174447,-187500.02235174447
-15214.206601882768,2933.085314403214,4496.701597774219,2202.9432300261533,-187500.02235174447,-187500.02235174447,-187500.02235174447,-187500.02235174447
-15056.783265684042,2978.213486458479,4671.916922559371,2252.9440823726754,-187500.02235174447,-187500.02235174447,-187500.02235174447,-187500.02235174447
-15040.958230609684,2922.334125320211,4695.5650681930865,2225.183215759184,-187500.02235174447,-187500.02235174447,-187500.02235174447,-187500.02235174447
-15185.037575368593,2876.8036218647508,4524.641278343353,2181.0385204599525,-187500.02235174447,-187500.02235174447,-187500.02235174447,-187500.02235174447
-15230.121043934947,2924.4798927879206,4466.727908459653,2195.5224508669917,-187500.02235174447,-187500.02235174447,-187500.02235174447,-187500.02235174447
-15080.498466551122,2981.2309719599452,4640.758590788673,2252.0723643389183,-187500.02235174447,-187500.02235174447,-187500.02235174447,-187500.02235174447
-15023.166242023259,2938.3603260946666,4709.98194336676,2236.91788159822,-187500.02235174447,-187500.02235174447,-187500.02235174447,-187500.02235174447
-15157.991964577672,2883.66560741253,4555.196113013758,2185.95590424012,-187500.02235174447,-187500.02235174447,-187500.02235174447,-187500.02235174447
-15240.738122551218,2906.933773390505,4459.105963600393,2186.022959473486,-187500.02235174447,-187500.02235174447,-187500.02235174447,-187500.02235174447
-15108.125222697881,2976.760623068884,4610.6284392629195,2245.702117169156,-187500.02235174447,-187500.02235174447,-187500.02235174447,-187500.02235174447
-15018.561782665467,2951.4137448565657,4717.536832992653,2243.690460168178,-187500.02235174447,-187500.02235174447,-187500.02235174447,-187500.02235174447
-15131.303981698034,2883.9785318349045,4580.006549359149,2192.9967037435417,-187500.02235174447,-187500.02235174447,-187500.02235174447,-187500.02235174447
-15240.983991740226,2894.863831384639,4454.2556350535915,2182.0443489604413,-187500.02235174447,-187500.02235174447,-187500.02235174447,-187500.02235174447
-15136.71310385622,2967.4175938865656,4578.553685969554,2234.4591897081364,-187500.02235174447,-187500.02235174447,-187500.02235174447,-187500.02235174447
-15016.818346597953,2963.4613351179764,4709.758425922207,2248.3843265037926,-187500.02235174447,-187500.02235174447,-187500.02235174447,-187500.02235174447
-15102.537286584055,2890.2370202823904,4618.4962533111875,2199.05402649093,-187500.02235174447,-187500.02235174447,-187500.02235174447,-187500.02235174447
-15233.853785258983,2888.3818254926,4467.152591604304,2177.4622413471034,-187500.02235174447,-187500.02235174447,-187500.02235174447,-187500.02235174447
-15162.350554746457,2962.4778583619427,4545.13782800887,2225.317326225916,-187500.02235174447,-187500.02235174447,-187500.02235174447,-187500.02235174447
-15020.484032688622,2977.967617269471,4708.238507299246,2256.9673963746304,-187500.02235174447,-187500.02235174447,-187500.02235174447,-187500.02235174447
-15075.178751370759,2903.066921599737,4648.402887392389,2210.3193056964046,-187500.02235174447,-187500.02235174447,-187500.02235174447,-187500.02235174447
-15224.019017698649,2877.697691642963,4480.831859210952,2174.6906250346456,-187500.02235174447,-187500.02235174447,-187500.02235174447,-187500.02235174447
-15194.134735361904,2941.020183684848,4514.426531127278,2209.313477195916,-187500.02235174447,-187500.02235174447,-187500.02235174447,-187500.02235174447
-15039.17009105326,2974.436041645532,4690.915905346383,2250.3959835047704,-187500.02235174447,-187500.02235174447,-187500.02235174447,-187500.02235174447
-15056.22447207266,2909.3254100472227,4670.598169636509,2214.2085092316283,-187500.02235174447,-187500.02235174447,-187500.02235174447,-187500.02235174447
-15208.395148324389,2875.99895906436,4499.763786764596,2173.2601133895055,-187500.02235174447,-187500.02235174447,-187500.02235174447,-187500.02235174447
-15216.777052495128,2927.6761922450296,4491.247772127124,2198.5846398573685,-187500.02235174447,-187500.02235174447,-187500.02235174447,-187500.02235174447
-15055.755085439097,2984.248457461412,4668.407698679888,2251.7147364276334,-187500.02235174447,-187500.02235174447,-187500.02235174447,-187500.02235174447
-15033.224527028147,2926.9385846780046,4693.441652469833,2226.5466721709577,-187500.02235174447,-187500.02235174447,-187500.02235174447,-187500.02235174447
-15183.897636401372,2872.75795611834,4525.960031266217,2180.0326919594636,-187500.02235174447,-187500.02235174447,-187500.02235174447,-187500.02235174447
-15232.020942213649,2916.075636872725,4469.991263150127,2189.57688684188,-187500.02235174447,-187500.02235174447,-187500.02235174447,-187500.02235174447
-15080.431411317757,2979.956922525993,4642.30086115609,2250.6195009493235,-187500.02235174447,-187500.02235174447,-187500.02235174447,-187500.02235174447
-15022.205117011681,2941.6683842740517,4707.009161354204,2236.5826054313907,-187500.02235174447,-187500.02235174447,-187500.02235174447,-187500.02235174447
-15155.533272687588,2881.8774678561053,4558.168895026314,2184.1901164281508,-187500.02235174447,-187500.02235174447,-187500.02235174447,-187500.02235174447
-15239.35231439499,2900.9882093653932,4462.905760157795,2182.67019780519,-187500.02235174447,-187500.02235174447,-187500.02235174447,-187500.02235174447
-15106.359434885913,2975.374814912655,4611.678971252319,2241.5223409560135,-187500.02235174447,-187500.02235174447,-187500.02235174447,-187500.02235174447
-15016.527773920034,2950.944358223004,4715.8157486695945,2241.410582233737,-187500.02235174447,-187500.02235174447,-187500.02235174447,-187500.02235174447
-15129.672304352798,2882.7268341454073,4590.534220997599,2190.605067086824,-187500.02235174447,-187500.02235174447,-187500.02235174447,-187500.02235174447
-15244.381456897434,2889.5888196931865,4461.698765957209,2174.4671075900924,-187500.02235174447,-187500.02235174447,-187500.02235174447,-187500.02235174447
-15139.104740512937,2963.8189630292613,4578.844258647473,2228.737143127578,-187500.02235174447,-187500.02235174447,-187500.02235174447,-187500.02235174447
-15017.980637309629,2962.5896170842193,4716.352190536522,2244.53982645748,-187500.02235174447,-187500.02235174447,-187500.02235174447,-187500.02235174447
-15104.392481373845,2890.1699650490245,4624.620631291942,2194.1366427107623,-187500.02235174447,-187500.02235174447,-187500.02235174447,-187500.02235174447
-15238.324134150045,2885.0737673132144,4470.125373616859,2171.248456388528,-187500.02235174447,-187500.02235174447,-187500.02235174447,-187500.02235174447
-15167.267938526624,2955.72763153644,4546.143656509359,2219.349410456349,-187500.02235174447,-187500.02235174447,-187500.02235174447,-187500.02235174447
-15023.009779812073,2972.156163711091,4709.356094522011,2249.412506748737,-187500.02235174447,-187500.02235174447,-187500.02235174447,-187500.02235174447
-15074.038812403538,2900.6752849430186,4648.671108325852,2204.6196108603017,-187500.02235174447,-187500.02235174447,-187500.02235174447,-187500.02235174447
-15219.571020552043,2881.1175085446253,4479.356644076901,2172.768375011489,-187500.02235174447,-187500.02235174447,-187500.02235174447,-187500.02235174447
-15190.178476593313,2943.7470965083953,4517.376961395378,2209.5593463849245,-187500.02235174447,-187500.02235174447,-187500.02235174447,-187500.02235174447
-15034.02918982854,2976.4924021354204,4694.827460626061,2252.184123061195,-187500.02235174447,-187500.02235174447,-187500.02235174447,-187500.02235174447
-15050.860053403385,2911.0017908813707,4677.728376117751,2216.4883871660695,-187500.02235174447,-187500.02235174447,-187500.02235174447,-187500.02235174447
-15198.090994130493,2876.982435820393,4509.822071769485,2178.870401247788,-187500.02235174447,-187500.02235174447,-187500.02235174447,-187500.02235174447
-15210.004473925172,2931.118360891147,4496.567487307488,2201.6244771032902,-187500.02235174447,-187500.02235174447,-187500.02235174447,-187500.02235174447
-15048.066085346472,2983.823774316761,4673.660358626886,2255.335719029393,-187500.02235174447,-187500.02235174447,-187500.02235174447,-187500.02235174447
-15029.134157792827,2933.3311835922223,4701.465928729288,2229.6535646502452,-187500.02235174447,-187500.02235174447,-187500.02235174447,-187500.02235174447
-15175.851008397462,2884.962008590938,4535.794798826551,2181.709072793612,-187500.02235174447,-187500.02235174447,-187500.02235174447,-187500.02235174447
-15222.364988608955,2923.6752299875297,4477.009710909094,2194.0695874773965,-187500.02235174447,-187500.02235174447,-187500.02235174447,-187500.02235174447
-15072.116562380383,2988.2717714633673,4651.912111271872,2251.3124050274378,-187500.02235174447,-187500.02235174447,-187500.02235174447,-187500.02235174447
-15015.790166353008,2941.511922062865,4716.173376580879,2234.4144862192256,-187500.02235174447,-187500.02235174447,-187500.02235174447,-187500.02235174447
-15148.581880161988,2883.4197382235216,4561.4993049501545,2185.8217937733884,-187500.02235174447,-187500.02235174447,-187500.02235174447,-187500.02235174447
-15233.406750369877,2907.4255117685216,4470.192428850225,2184.6147995728015,-187500.02235174447,-187500.02235174447,-187500.02235174447,-187500.02235174447
-15099.69861503823,2979.1075562366914,4620.217337634246,2242.2375967785833,-187500.02235174447,-187500.02235174447,-187500.02235174447,-187500.02235174447
-15006.357730192869,2963.2378176734233,4727.908042419916,2244.964509602131,-187500.02235174447,-187500.02235174447,-187500.02235174447,-187500.02235174447
-15117.065920480005,2894.506203473354,4597.5973722454755,2193.5554973549247,-187500.02235174447,-187500.02235174447,-187500.02235174447,-187500.02235174447
-15228.802291012085,2909.258354813857,4471.98056840665,2180.9938169710417,-187500.02235174447,-187500.02235174447,-187500.02235174447,-187500.02235174447
-15126.386597917868,2981.879172549149,4593.082319865503,2235.308555997438,-187500.02235174447,-187500.02235174447,-187500.02235174447,-187500.02235174447
-15006.603599381877,2975.6430358461184,4730.836120943561,2252.139419572284,-187500.02235174447,-187500.02235174447,-187500.02235174447,-187500.02235174447
-15092.501353323622,2903.9162878890384,4633.270756396146,2202.406788159226,-187500.02235174447,-187500.02235174447,-187500.02235174447,-187500.02235174447
-15230.67983754633,2894.3944447510776,4478.350815576412,2174.891790734743,-187500.02235174447,-187500.02235174447,-187500.02235174447,-187500.02235174447
-15159.645993667364,2967.1717246975572,4554.5702641690095,2223.0150965470193,-187500.02235174447,-187500.02235174447,-187500.02235174447,-187500.02235174447
-15016.572477408943,2984.181402228046,4719.772007438184,2254.2851870399936,-187500.02235174447,-187500.02235174447,-187500.02235174447,-187500.02235174447
-15069.635518745843,2912.834633926706,4662.663300354874,2208.374703928793,-187500.02235174447,-187500.02235174447,-187500.02235174447,-187500.02235174447
-15214.519526305143,2888.024197581315,4496.522783818577,2175.2047151571173,-187500.02235174447,-187500.02235174447,-187500.02235174447,-187500.02235174447
-15184.545836990577,2950.0055849558817,4529.223385956691,2210.989858030064,-187500.02235174447,-187500.02235174447,-187500.02235174447,-187500.02235174447
-15025.960210080173,2990.1269662531577,4704.93044911986,2256.2968440409713,-187500.02235174447,-187500.02235174447,-187500.02235174447,-187500.02235174447
-15045.78620741203,2925.9104044330606,4686.423204710866,2219.1035412673405,-187500.02235174447,-187500.02235174447,-187500.02235174447,-187500.02235174447
-15195.073508629026,2889.924095860016,4515.32060090549,2179.0492152034303,-187500.02235174447,-187500.02235174447,-187500.02235174447,-187500.02235174447
-15206.025863412127,2941.4001633405883,4497.908591974806,2202.8091195594216,-187500.02235174447,-187500.02235174447,-187500.02235174447,-187500.02235174447
-15047.373181268356,2991.0657395202807,4677.951893562305,2254.8439806513766,-187500.02235174447,-187500.02235174447,-187500.02235174447,-187500.02235174447
-15026.943686836206,2931.408933569066,4705.422187497877,2228.826550105399,-187500.02235174447,-187500.02235174447,-187500.02235174447,-187500.02235174447
-15171.71593567323,2887.867735370128,4538.119380249904,2183.6313228167683,-187500.02235174447,-187500.02235174447,-187500.02235174447,-187500.02235174447
-15223.34846536499,2928.1679306230462,4481.569466777976,2195.5895061003575,-187500.02235174447,-187500.02235174447,-187500.02235174447,-187500.02235174447
-15071.691879235732,2990.1716697420684,4653.074401983547,2253.1899515616838,-187500.02235174447,-187500.02235174447,-187500.02235174447,-187500.02235174447
-15012.996198296094,2949.7150122779626,4722.521272006187,2236.6273089203014,-187500.02235174447,-187500.02235174447,-187500.02235174447,-187500.02235174447
-15147.28547898358,2888.6500464260635,4569.881209120895,2186.6264565737793,-187500.02235174447,-187500.02235174447,-187500.02235174447,-187500.02235174447
-15230.72454103524,2917.2602793288565,4474.394556807823,2185.508869351014,-187500.02235174447,-187500.02235174447,-187500.02235174447,-187500.02235174447
-15099.005710960117,2989.6799313640513,4623.726561513729,2243.2657770235273,-187500.02235174447,-187500.02235174447,-187500.02235174447,-187500.02235174447
-15005.35190169238,2961.4496781169987,4729.629126742974,2245.1433235577733,-187500.02235174447,-187500.02235174447,-187500.02235174447,-187500.02235174447
-15112.483812866667,2894.5285552178093,4601.330113569512,2196.081244478374,-187500.02235174447,-187500.02235174447,-187500.02235174447,-187500.02235174447
-15226.63417179992,2907.090235601692,4471.310016072991,2181.9772937270754,-187500.02235174447,-187500.02235174447,-187500.02235174447,-187500.02235174447
-15127.593592118454,2979.3981289146104,4586.086223850993,2233.8109891189324,-187500.02235174447,-187500.02235174447,-187500.02235174447,-187500.02235174447
-15003.49670690259,2972.8043643002948,4728.310373820112,2250.150114315762,-187500.02235174447,-187500.02235174447,-187500.02235174447,-187500.02235174447
-15088.858018977407,2904.4527297559657,4631.3485063729895,2201.7809393144776,-187500.02235174447,-187500.02235174447,-187500.02235174447,-187500.02235174447
-15222.856726986973,2903.8492326556725,4478.306112087502,2176.568171568891,-187500.02235174447,-187500.02235174447,-187500.02235174447,-187500.02235174447
-15153.901595342351,2969.697471821007,4556.492514192166,2224.6467738922565,-187500.02235174447,-187500.02235174447,-187500.02235174447,-187500.02235174447
-15014.382006452324,2984.159050483591,4721.828367928072,2254.7769254180107,-187500.02235174447,-187500.02235174447,-187500.02235174447,-187500.02235174447
-15067.400344300313,2910.1077211031584,4661.389250920922,2207.927669039687,-187500.02235174447,-187500.02235174447,-187500.02235174447,-187500.02235174447
-15212.217296626246,2890.080558071203,4492.052434927516,2176.7916890134443,-187500.02235174447,-187500.02235174447,-187500.02235174447,-187500.02235174447
-15182.891807900884,2955.526465836342,4525.267127188102,2211.123968496796,-187500.02235174447,-187500.02235174447,-187500.02235174447,-187500.02235174447
-15026.675465902743,2994.217335488479,4702.114129318492,2253.63698645079,-187500.02235174447,-187500.02235174447,-187500.02235174447,-187500.02235174447
-15040.98058235414,2926.2009771109792,4690.848850113017,2217.047180777452,-187500.02235174447,-187500.02235174447,-187500.02235174447,-187500.02235174447
-15192.994796394683,2892.405139494555,4517.13109220637,2177.23872390255,-187500.02235174447,-187500.02235174447,-187500.02235174447,-187500.02235174447
-15202.67310174383,2945.758753509373,4503.049493199527,2203.0773404928855,-187500.02235174447,-187500.02235174447,-187500.02235174447,-187500.02235174447
-15047.842567901918,2993.3903209436326,4681.818745353073,2252.9664341171306,-187500.02235174447,-187500.02235174447,-187500.02235174447,-187500.02235174447
-15025.647285657798,2937.309794105267,4707.925582876871,2227.8877768382763,-187500.02235174447,-187500.02235174447,-187500.02235174447,-187500.02235174447
-15169.748982161163,2886.7501481473623,4542.634432629876,2181.9102384937096,-187500.02235174447,-187500.02235174447,-187500.02235174447,-187500.02235174447
-15220.688607774808,2928.0785236452252,4482.709405745198,2193.6225525882905,-187500.02235174447,-187500.02235174447,-187500.02235174447,-187500.02235174447
-15069.814332701486,2995.312570966789,4654.929596773338,2254.35224227336,-187500.02235174447,-187500.02235174447,-187500.02235174447,-187500.02235174447
-15009.084643016417,2952.084297190225,4718.565013237598,2242.1928932896726,-187500.02235174447,-187500.02235174447,-187500.02235174447,-187500.02235174447
-15139.66353412432,2895.892011629583,4570.66352017683,2191.1638606982065,-187500.02235174447,-187500.02235174447,-187500.02235174447,-187500.02235174447
-15228.556421823076,2917.3273345622224,4471.198257350714,2186.29118040695,-187500.02235174447,-187500.02235174447,-187500.02235174447,-187500.02235174447
-15102.269065650591,2987.467108662976,4618.786825989107,2244.025736335008,-187500.02235174447,-187500.02235174447,-187500.02235174447,-187500.02235174447
-15005.418956925745,2965.942378752515,4725.404647040921,2245.657413680245,-187500.02235174447,-187500.02235174447,-187500.02235174447,-187500.02235174447
-15114.339007656457,2894.2379825398903,4596.993875145183,2196.6623898342123,-187500.02235174447,-187500.02235174447,-187500.02235174447,-187500.02235174447
-15228.48936658971,2905.5256134898204,4467.353757304401,2182.513735594003,-187500.02235174447,-187500.02235174447,-187500.02235174447,-187500.02235174447
-15128.510013641122,2980.0686812482695,4584.923933139316,2235.9344048421867,-187500.02235174447,-187500.02235174447,-187500.02235174447,-187500.02235174447
-15005.4413086702,2978.5487626253084,4726.879862174972,2253.279358539505,-187500.02235174447,-187500.02235174447,-187500.02235174447,-187500.02235174447
-15088.455687577212,2904.2515640558677,4635.908262241872,2202.764416070511,-187500.02235174447,-187500.02235174447,-187500.02235174447,-187500.02235174447
-15224.35429386548,2896.026122096315,4478.596684765421,2177.216372158095,-187500.02235174447,-187500.02235174447,-187500.02235174447,-187500.02235174447
-15156.494397699165,2969.0045677428925,4552.133924023381,2223.6409453917677,-187500.02235174447,-187500.02235174447,-187500.02235174447,-187500.02235174447
-15011.58803839541,2989.948152297515,4720.040228371648,2254.8663323958317,-187500.02235174447,-187500.02235174447,-187500.02235174447,-187500.02235174447
-15060.158379096792,2919.5178055188426,4667.960663790782,2210.699285352145,-187500.02235174447,-187500.02235174447,-187500.02235174447,-187500.02235174447
-15207.098747145981,2897.0095988523485,4497.550964063521,2176.992854713542,-187500.02235174447,-187500.02235174447,-187500.02235174447,-187500.02235174447
-15182.668290456331,2957.046384459303,4523.970726009694,2213.7838260869776,-187500.02235174447,-187500.02235174447,-187500.02235174447,-187500.02235174447
-15028.553012436989,2983.086166749736,4695.7438821487285,2255.9168643852313,-187500.02235174447,-187500.02235174447,-187500.02235174447,-187500.02235174447
-15037.73957940812,2918.154349107069,4683.673940142863,2221.0704947794075,-187500.02235174447,-187500.02235174447,-187500.02235174447,-187500.02235174447
-15195.878171429416,2874.501392185854,4506.514013590099,2181.485555349059,-187500.02235174447,-187500.02235174447,-187500.02235174447,-187500.02235174447
-15211.792613481595,2921.440055541999,4496.36632160739,2202.67500909269,-187500.02235174447,-187500.02235174447,-187500.02235174447,-187500.02235174447
-15051.955288881694,2974.5925038567193,4678.130707517947,2258.643777208779,-187500.02235174447,-187500.02235174447,-187500.02235174447,-187500.02235174447
-15028.776529881541,2921.4624072864544,4703.276420030167,2233.0733815519075,-187500.02235174447,-187500.02235174447,-187500.02235174447,-187500.02235174447
-15172.073563584516,2871.3497962176557,4535.951261037739,2186.090014706852,-187500.02235174447,-187500.02235174447,-187500.02235174447,-187500.02235174447
-15225.87421248844,2908.2972298022783,4478.194353365226,2196.438872389659,-187500.02235174447,-187500.02235174447,-187500.02235174447,-187500.02235174447
-15075.581082770954,2975.598332357208,4648.425239136844,2256.2074370631503,-187500.02235174447,-187500.02235174447,-187500.02235174447,-187500.02235174447
-15016.058387286472,2934.1358463926135,4716.486301003254,2242.304652011949,-187500.02235174447,-187500.02235174447,-187500.02235174447,-187500.02235174447
-15147.352534216945,2874.344929974667,4566.61785443042,2193.153165954729,-187500.02235174447,-187500.02235174447,-187500.02235174447,-187500.02235174447
-15235.373703881945,2898.7083314309516,4465.923245659262,2189.95686649762,-187500.02235174447,-187500.02235174447,-187500.02235174447,-187500.02235174447
-15101.218533661191,2974.056061989792,4614.942325942794,2249.792486404477,-187500.02235174447,-187500.02235174447,-187500.02235174447,-187500.02235174447
-15009.755195350075,2951.4137448565657,4727.103379619525,2250.150114315762,-187500.02235174447,-187500.02235174447,-187500.02235174447,-187500.02235174447
-15118.675246080787,2882.793889378773,4602.648866492375,2198.8081573019217,-187500.02235174447,-187500.02235174447,-187500.02235174447,-187500.02235174447
-15234.233764914725,2890.6169999381304,4468.761917205085,2183.787785027955,-187500.02235174447,-187500.02235174447,-187500.02235174447,-187500.02235174447
-15133.382693932379,2967.9987392424036,4578.710148180741,2237.476675209603,-187500.02235174447,-187500.02235174447,-187500.02235174447,-187500.02235174447
-15010.626913383832,2966.3000066638,4716.732170192262,2254.5981114623683,-187500.02235174447,-187500.02235174447,-187500.02235174447,-187500.02235174447
-15090.020309689084,2897.4342819969993,4628.576890060531,2207.0335992614746,-187500.02235174447,-187500.02235174447,-187500.02235174447,-187500.02235174447
-15224.15312816538,2890.7734621493178,4472.3381963179345,2182.0443489604413,-187500.02235174447,-187500.02235174447,-187500.02235174447,-187500.02235174447
-15159.355420989445,2956.4205356145544,4546.210711742725,2227.3289832268933,-187500.02235174447,-187500.02235174447,-187500.02235174447,-187500.02235174447
-15016.25955298657,2973.3631579116773,4708.484376488254,2257.7720591750217,-187500.02235174447,-187500.02235174447,-187500.02235174447,-187500.02235174447
-15068.137951867337,2901.0329128543035,4650.436896137821,2211.8392243193657,-187500.02235174447,-187500.02235174447,-187500.02235174447,-187500.02235174447
-15214.318360605046,2883.1738690345132,4486.196277880225,2179.540953581447,-187500.02235174447,-187500.02235174447,-187500.02235174447,-187500.02235174447
-15187.406860280857,2946.317547120756,4514.22536542718,2214.610840631824,-187500.02235174447,-187500.02235174447,-187500.02235174447,-187500.02235174447
-15031.078759560438,2987.310646451789,4687.741957633729,2259.1131638423403,-187500.02235174447,-187500.02235174447,-187500.02235174447,-187500.02235174447
-15043.014591099572,2917.9084799180605,4677.504858673198,2223.529186669491,-187500.02235174447,-187500.02235174447,-187500.02235174447,-187500.02235174447
-15196.258151085158,2876.5801044201976,4503.787100766552,2179.9432849816426,-187500.02235174447,-187500.02235174447,-187500.02235174447,-187500.02235174447
-15208.372796579933,2929.956070179471,4482.55294353401,2203.569078870902,-187500.02235174447,-187500.02235174447,-187500.02235174447,-187500.02235174447
-15050.904756892296,2986.6177423736744,4663.244445710712,2258.286149297494,-187500.02235174447,-187500.02235174447,-187500.02235174447,-187500.02235174447
-15027.614239169865,2929.9113666905605,4696.794414138129,2233.900396096754,-187500.02235174447,-187500.02235174447,-187500.02235174447,-187500.02235174447
-15171.313604273035,2875.0378340527814,4530.117455734904,2187.0064362295197,-187500.02235174447,-187500.02235174447,-187500.02235174447,-187500.02235174447
-15222.879078731428,2918.1319973626137,4466.88437067084,2197.2658869345055,-187500.02235174447,-187500.02235174447,-187500.02235174447,-187500.02235174447
-15070.417829801778,2990.8645738201826,4641.071515211048,2258.01792836403,-187500.02235174447,-187500.02235174447,-187500.02235174447,-187500.02235174447
-15014.605523896877,2944.6858697755183,4712.261821301201,2242.3940589897707,-187500.02235174447,-187500.02235174447,-187500.02235174447,-187500.02235174447
-15144.402103948845,2884.1349940460914,4563.421554973311,2193.3319799103715,-187500.02235174447,-187500.02235174447,-187500.02235174447,-187500.02235174447
-15232.512680591666,2903.737473933396,4466.906722415295,2189.3310176528717,-187500.02235174447,-187500.02235174447,-187500.02235174447,-187500.02235174447
-15103.878391251374,2974.63720734563,4610.673142751831,2246.7079456696447,-187500.02235174447,-187500.02235174447,-187500.02235174447,-187500.02235174447
-15007.385910437813,2954.25241640239,4716.642763214441,2249.5913207043795,-187500.02235174447,-187500.02235174447,-187500.02235174447,-187500.02235174447
-15116.060091979516,2883.822069623717,4595.831584433507,2199.5010613800364,-187500.02235174447,-187500.02235174447,-187500.02235174447,-187500.02235174447
-15235.01607597066,2892.8521743836613,4462.302263057502,2182.737253038556,-187500.02235174447,-187500.02235174447,-187500.02235174447,-187500.02235174447
-15131.058112509027,2973.854896289694,4578.084299335993,2238.9295385991977,-187500.02235174447,-187500.02235174447,-187500.02235174447,-187500.02235174447
-15011.878611073329,2965.942378752515,4721.761312694706,2255.4921812405805,-187500.02235174447,-187500.02235174447,-187500.02235174447,-187500.02235174447
-15092.70251902372,2889.8793923711055,4627.4145993488555,2206.273639949994,-187500.02235174447,-187500.02235174447,-187500.02235174447,-187500.02235174447
-15227.282372389123,2882.257447511846,4470.55005676151,2181.172630926684,-187500.02235174447,-187500.02235174447,-187500.02235174447,-187500.02235174447
-15162.417609979822,2956.2640734033675,4541.740362851663,2227.150169271251,-187500.02235174447,-187500.02235174447,-187500.02235174447,-187500.02235174447
-15014.985503552618,2977.945265525015,4704.952800864316,2261.1695243322283,-187500.02235174447,-187500.02235174447,-187500.02235174447,-187500.02235174447
-15064.69578322122,2904.4974332448764,4653.677899083841,2216.4660354216144,-187500.02235174447,-187500.02235174447,-187500.02235174447,-187500.02235174447
-15213.58075303802,2873.9202468300164,4480.921266188773,2182.3349216383604,-187500.02235174447,-187500.02235174447,-187500.02235174447,-187500.02235174447
-15190.29023531559,2940.0814104177252,4508.637429313353,2215.661372621223,-187500.02235174447,-187500.02235174447,-187500.02235174447,-187500.02235174447
-15036.174957296249,2979.4875358924314,4685.775004121662,2257.8838178972983,-187500.02235174447,-187500.02235174447,-187500.02235174447,-187500.02235174447
-15048.624878957855,2906.9114216460493,4672.252198726202,2222.836282591377,-187500.02235174447,-187500.02235174447,-187500.02235174447,-187500.02235174447
-15195.587598751497,2870.0980985281585,4501.998961210127,2182.1337559382628,-187500.02235174447,-187500.02235174447,-187500.02235174447,-187500.02235174447
-15209.780956480618,2921.998849153382,4482.93292318975,2203.345561426349,-187500.02235174447,-187500.02235174447,-187500.02235174447,-187500.02235174447
-15050.591832469921,2977.2300097024454,4662.082154999037,2257.9061696417534,-187500.02235174447,-187500.02235174447,-187500.02235174447,-187500.02235174447
-15027.904811847784,2921.4624072864544,4691.742919891229,2231.7099251401337,-187500.02235174447,-187500.02235174447,-187500.02235174447,-187500.02235174447
-15172.520598473622,2872.825011351706,4523.926022520784,2184.0113024725083,-187500.02235174447,-187500.02235174447,-187500.02235174447,-187500.02235174447
-15224.48840433221,2914.1980903384797,4465.856190425896,2194.158994455218,-187500.02235174447,-187500.02235174447,-187500.02235174447,-187500.02235174447
-15076.69866999372,2978.4593556474874,4637.517587842654,2251.5806259609017,-187500.02235174447,-187500.02235174447,-187500.02235174447,-187500.02235174447
-15016.63953264231,2936.862759216161,4711.233641056257,2239.890663610776,-187500.02235174447,-187500.02235174447,-187500.02235174447,-187500.02235174447
-15148.47012143971,2872.8473630961616,4563.399203228856,2189.1298519527736,-187500.02235174447,-187500.02235174447,-187500.02235174447,-187500.02235174447
-15232.199756169292,2899.512994231343,4461.966986890672,2187.7216920520896,-187500.02235174447,-187500.02235174447,-187500.02235174447,-187500.02235174447
-15106.068862207994,2971.7091288219845,4608.728540984219,2244.606881690846,-187500.02235174447,-187500.02235174447,-187500.02235174447,-187500.02235174447
-15008.794070338497,2953.7383262799176,4720.777835938673,2247.4455532366696,-187500.02235174447,-187500.02235174447,-187500.02235174447,-187500.02235174447
-15116.574182101987,2881.1175085446253,4595.585715244498,2197.064721234408,-187500.02235174447,-187500.02235174447,-187500.02235174447,-187500.02235174447
-15234.479634103733,2886.146651047069,4460.715289201175,2181.060872204408,-187500.02235174447,-187500.02235174447,-187500.02235174447,-187500.02235174447
-15138.210670734725,2958.119268193158,4574.798592901063,2233.900396096754,-187500.02235174447,-187500.02235174447,-187500.02235174447,-187500.02235174447
-15011.297465717491,2959.5497798382976,4713.893498646438,2252.497047483569,-187500.02235174447,-187500.02235174447,-187500.02235174447,-187500.02235174447
-15093.75305101312,2878.994092821371,4615.188195131802,2204.641962604757,-187500.02235174447,-187500.02235174447,-187500.02235174447,-187500.02235174447
-15228.802291012085,2871.0368717952815,4455.686146698731,2183.3631018833044,-187500.02235174447,-187500.02235174447,-187500.02235174447,-187500.02235174447
-15168.452580982756,2938.1591603945685,4530.698601090741,2227.753666371544,-187500.02235174447,-187500.02235174447,-187500.02235174447,-187500.02235174447
-15025.69198914671,2952.866608246161,4698.3813879944555,2257.1462103302733,-187500.02235174447,-187500.02235174447,-187500.02235174447,-187500.02235174447
-15076.832780460452,2879.1058515436475,4644.3795733904335,2213.403846431237,-187500.02235174447,-187500.02235174447,-187500.02235174447,-187500.02235174447
-15220.666256030352,2858.1399152445692,4476.36151031989,2180.5914855708465,-187500.02235174447,-187500.02235174447,-187500.02235174447,-187500.02235174447
-15194.402956295367,2922.021200897837,4500.814318753996,2214.7449510985557,-187500.02235174447,-187500.02235174447,-187500.02235174447,-187500.02235174447
-15041.718189921165,2955.571169325253,4676.476678428255,2257.794410919477,-187500.02235174447,-187500.02235174447,-187500.02235174447,-187500.02235174447
-15052.335268537436,2894.1262238176137,4665.926655045349,2223.6856488806784,-187500.02235174447,-187500.02235174447,-187500.02235174447,-187500.02235174447
-15201.376700565423,2854.6530431095416,4494.153498906315,2181.2843896489608,-187500.02235174447,-187500.02235174447,-187500.02235174447,-187500.02235174447
-15215.033616427616,2909.504224002865,4473.545190518522,2204.1055207378295,-187500.02235174447,-187500.02235174447,-187500.02235174447,-187500.02235174447
-15056.783265684042,2966.3670618971664,4653.834361295028,2259.1355155867955,-187500.02235174447,-187500.02235174447,-187500.02235174447,-187500.02235174447
-15032.68808516122,2904.676247200519,4683.003387809204,2232.179311773695,-187500.02235174447,-187500.02235174447,-187500.02235174447,-187500.02235174447
-15169.123133316414,2856.150609988047,4517.980458495672,2188.0346164744637,-187500.02235174447,-187500.02235174447,-187500.02235174447,-187500.02235174447
-15224.15312816538,2897.188412807991,4454.5015042426,2196.6847415786674,-187500.02235174447,-187500.02235174447,-187500.02235174447,-187500.02235174447
-15079.336175839446,2962.567265339764,4622.497215568687,2252.184123061195,-187500.02235174447,-187500.02235174447,-187500.02235174447,-187500.02235174447
-15014.806689596975,2925.575128266231,4693.6875216588405,2241.0082508335413,-187500.02235174447,-187500.02235174447,-187500.02235174447,-187500.02235174447
-15143.843310337463,2861.760897846329,4546.881264076384,2191.6779508206787,-187500.02235174447,-187500.02235174447,-187500.02235174447,-187500.02235174447
-15230.00928521267,2886.8842586140945,4447.237187294625,2189.8451077753434,-187500.02235174447,-187500.02235174447,-187500.02235174447,-187500.02235174447
-15103.744280784642,2958.3874891266214,4588.746081441174,2247.244387536572,-187500.02235174447,-187500.02235174447,-187500.02235174447,-187500.02235174447
-15004.904866803274,2940.1037621621804,4704.88574563095,2250.217169549128,-187500.02235174447,-187500.02235174447,-187500.02235174447,-187500.02235174447
-15110.47215586569,2869.4275461944994,4580.855915648451,2200.663352091712,-187500.02235174447,-187500.02235174447,-187500.02235174447,-187500.02235174447
-15226.611820055465,2884.962008590938,4446.83485589443,2187.6546368187232,-187500.02235174447,-187500.02235174447,-187500.02235174447,-187500.02235174447
-15132.04158926506,2956.085259447725,4563.0862788064815,2239.175407788206,-187500.02235174447,-187500.02235174447,-187500.02235174447,-187500.02235174447
-15003.92139004724,2953.53716057982,4705.511594475698,2257.8391144083876,-187500.02235174447,-187500.02235174447,-187500.02235174447,-187500.02235174447
-15085.88523696485,2877.250656753857,4615.72463699873,2208.173538228695,-187500.02235174447,-187500.02235174447,-187500.02235174447,-187500.02235174447
-15226.097729932992,2867.885275827083,4465.744431703619,2180.770299526489,-187500.02235174447,-187500.02235174447,-187500.02235174447,-187500.02235174447
-15163.356383246946,2938.025049927837,4533.85019705894,2226.412561704226,-187500.02235174447,-187500.02235174447,-187500.02235174447,-187500.02235174447
-15017.712416376164,2958.2310269154345,4699.431919983855,2257.6155969638344,-187500.02235174447,-187500.02235174447,-187500.02235174447,-187500.02235174447
-15061.186559341737,2891.064034827237,4648.179369947836,2213.7167708536117,-187500.02235174447,-187500.02235174447,-187500.02235174447,-187500.02235174447
-15209.19981112478,2867.907627571539,4479.311940587991,2180.0103402150085,-187500.02235174447,-187500.02235174447,-187500.02235174447,-187500.02235174447
-15186.423383524821,2928.1679306230462,4507.3186763904905,2215.05787552093,-187500.02235174447,-187500.02235174447,-187500.02235174447,-187500.02235174447
-15030.184689782225,2965.607102585686,4687.809012867095,2259.4484400091696,-187500.02235174447,-187500.02235174447,-187500.02235174447,-187500.02235174447
-15040.622954442855,2899.445938997977,4671.291073714623,2223.7527041140443,-187500.02235174447,-187500.02235174447,-187500.02235174447,-187500.02235174447
-15190.513752760144,2865.8065635927396,4502.736568777153,2182.2678664049945,-187500.02235174447,-187500.02235174447,-187500.02235174447,-187500.02235174447
-15205.91410468985,2920.05424738577,4484.69871100172,2205.7371980830667,-187500.02235174447,-187500.02235174447,-187500.02235174447,-187500.02235174447
-15050.256556303091,2970.5468381103087,4660.137553231425,2256.363899274337,-187500.02235174447,-187500.02235174447,-187500.02235174447,-187500.02235174447
-15023.076835045438,2915.405084539066,4696.816765882583,2231.866387351321,-187500.02235174447,-187500.02235174447,-187500.02235174447,-187500.02235174447
-15164.116342558425,2870.1428020170692,4533.5596243810205,2188.0793199633745,-187500.02235174447,-187500.02235174447,-187500.02235174447,-187500.02235174447
-15222.744968264697,2906.1291105901137,4467.756088704597,2196.461224134114,-187500.02235174447,-187500.02235174447,-187500.02235174447,-187500.02235174447
-15077.190408371736,2967.7305183089397,4634.433047107822,2254.6428149512785,-187500.02235174447,-187500.02235174447,-187500.02235174447,-187500.02235174447
-15011.364520950858,2929.8666632016498,4708.037341599148,2242.416410734226,-187500.02235174447,-187500.02235174447,-187500.02235174447,-187500.02235174447
-15140.244679480158,2867.0806130266924,4557.766563626118,2191.566192098402,-187500.02235174447,-187500.02235174447,-187500.02235174447,-187500.02235174447
-15229.91987823485,2893.4333197394994,4456.446106010211,2189.509831608514,-187500.02235174447,-187500.02235174447,-187500.02235174447,-187500.02235174447
-15103.118431939893,2963.6177973291633,4599.3631600574445,2247.6467189367677,-187500.02235174447,-187500.02235174447,-187500.02235174447,-187500.02235174447
-15004.971922036639,2939.7684859953506,4713.625277712975,2250.6195009493235,-187500.02235174447,-187500.02235174447,-187500.02235174447,-187500.02235174447
-15109.868658765396,2869.8075258502395,4593.57405824352,2199.992799758053,-187500.02235174447,-187500.02235174447,-187500.02235174447,-187500.02235174447
-15226.254192144179,2883.4644417124323,4455.417925765268,2185.1288896952738,-187500.02235174447,-187500.02235174447,-187500.02235174447,-187500.02235174447
-15132.399217176346,2956.465239103465,4567.087241063981,2237.1637507872288,-187500.02235174447,-187500.02235174447,-187500.02235174447,-187500.02235174447
-15005.955398792674,2954.6994512914957,4712.261821301201,2254.7322219291,-187500.02235174447,-187500.02235174447,-187500.02235174447,-187500.02235174447
-15083.851228219419,2883.6879591569855,4620.8431864789945,2208.4194074177035,-187500.02235174447,-187500.02235174447,-187500.02235174447,-187500.02235174447
-15223.862555487462,2870.500429928354,4463.956292147194,2181.440851860148,-187500.02235174447,-187500.02235174447,-187500.02235174447,-187500.02235174447
-15161.121208801414,2944.6858697755183,4533.805493570029,2224.4232564477034,-187500.02235174447,-187500.02235174447,-187500.02235174447,-187500.02235174447
-15017.06421578696,2961.427326372543,4696.2132687822905,2256.632120207801,-187500.02235174447,-187500.02235174447,-187500.02235174447,-187500.02235174447
-15066.573329755465,2884.6267324241085,4644.781904790629,2211.43689291917,-187500.02235174447,-187500.02235174447,-187500.02235174447,-187500.02235174447
-15215.368892594444,2859.2575024673347,4473.589894007432,2176.7246337800784,-187500.02235174447,-187500.02235174447,-187500.02235174447,-187500.02235174447
-15190.737270204696,2923.921099176538,4496.4110250963,2213.0685702644078,-187500.02235174447,-187500.02235174447,-187500.02235174447,-187500.02235174447
-15034.856204373385,2962.9025415065935,4672.520419659665,2257.8838178972983,-187500.02235174447,-187500.02235174447,-187500.02235174447,-187500.02235174447
-15043.439274244223,2895.4002732515664,4665.993710278715,2223.9985733030526,-187500.02235174447,-187500.02235174447,-187500.02235174447,-187500.02235174447
-15193.91121791735,2860.0398135232704,4492.968856450183,2181.3961483712374,-187500.02235174447,-187500.02235174447,-187500.02235174447,-187500.02235174447
-15213.15606989337,2912.342895548689,4472.069975384471,2203.6808375931787,-187500.02235174447,-187500.02235174447,-187500.02235174447,-187500.02235174447
-15053.586966226932,2966.277654919345,4650.548654860098,2257.7720591750217,-187500.02235174447,-187500.02235174447,-187500.02235174447,-187500.02235174447
-15023.255649001081,2913.2593170713567,4685.9985215662155,2235.4873699530804,-187500.02235174447,-187500.02235174447,-187500.02235174447,-187500.02235174447
-15166.105647814948,2865.2701217258123,4522.830787042473,2187.8110990299106,-187500.02235174447,-187500.02235174447,-187500.02235174447,-187500.02235174447
-15221.91795371985,2900.809395409751,4456.200236821203,2195.8130235449107,-187500.02235174447,-187500.02235174447,-187500.02235174447,-187500.02235174447
-15076.139876382338,2963.8636665181716,4619.680895767319,2254.464000995636,-187500.02235174447,-187500.02235174447,-187500.02235174447,-187500.02235174447
-15012.705625618175,2925.53042477732,4696.727358904763,2243.6234049348122,-187500.02235174447,-187500.02235174447,-187500.02235174447,-187500.02235174447
-15139.149444001849,2867.885275827083,4552.46920019021,2192.6614275767124,-187500.02235174447,-187500.02235174447,-187500.02235174447,-187500.02235174447
-15227.371779366946,2894.2379825398903,4452.579254219443,2190.8509362758323,-187500.02235174447,-187500.02235174447,-187500.02235174447,-187500.02235174447
-15100.547981327532,2965.562399096775,4592.881154165406,2248.496085226069,-187500.02235174447,-187500.02235174447,-187500.02235174447,-187500.02235174447
-15003.653169113777,2944.5741110532417,4708.372617765977,2251.3347567718934,-187500.02235174447,-187500.02235174447,-187500.02235174447,-187500.02235174447
-15111.187411688259,2868.444069438466,4587.00264537366,2197.9140875237094,-187500.02235174447,-187500.02235174447,-187500.02235174447,-187500.02235174447
-15236.513642849166,2860.5762553901977,4445.851379138396,2182.737253038556,-187500.02235174447,-187500.02235174447,-187500.02235174447,-187500.02235174447
